MORPHOLOGY AT STRAIN =    1.0000  FOR PHASE  1
   0.616   2.692   0.594  <-- AXES OF PHASE ELLIPSOID
   90.05   90.00   -0.00  <-- EULER ANGLES OF PHASE ELLIPSOID (deg)
   0.774   2.879   0.480  <-- AVERAGE OF GRAIN AXES FOR PHASE
   0.181   0.274   0.235  <-- STANDARD DEV OF AVG GRAIN AXES FOR PHASE
B       500
  138.30   89.84 -167.45     0.002000       0.8227    1.8072    0.6691
  146.18   88.32  169.10     0.002000       0.9037    2.6789    0.4060
   77.60   89.94   -9.46     0.002000       0.8905    2.9495    0.3729
  117.99   88.86    8.72     0.002000       0.9043    2.9327    0.3689
   84.61   90.28    0.28     0.002000       0.5677    3.9469    0.4333
   98.17   89.59   -0.99     0.002000       0.5173    3.7387    0.5035
   44.56   88.63   -9.95     0.002000       0.9052    2.8040    0.3864
  122.76   89.69   -1.09     0.002000       0.6135    3.9583    0.3995
  117.35   94.22   -6.31     0.002000       0.8395    1.5625    0.7598
 -167.00   94.00 -168.19     0.002000       0.8320    1.9404    0.6153
   66.76   89.48   -1.65     0.002000       0.6185    3.8716    0.4057
  118.15   90.42    0.81     0.002000       0.5243    3.7360    0.4971
 -150.50   96.44  170.70     0.002000       0.8458    1.8210    0.6456
  164.85   90.61 -170.55     0.002000       0.8940    2.9016    0.3778
 -167.17   90.68 -169.60     0.002000       0.8966    2.7815    0.3936
  165.05   90.30  178.98     0.002000       0.5253    3.8923    0.4754
 -142.19   90.29  178.65     0.002000       0.5442    3.8202    0.4678
 -142.47   89.07  173.71     0.002000       0.8638    3.2697    0.3451
 -140.84   88.12  167.24     0.002000       0.8532    2.2354    0.5189
 -159.64   89.00  177.23     0.002000       0.7196    3.7252    0.3623
  178.95   88.25  167.52     0.002000       0.8686    2.3481    0.4845
   89.14   90.98   -7.42     0.002000       0.8843    3.1600    0.3492
  165.42   90.43 -179.25     0.002000       0.5033    3.8763    0.4984
   89.81   90.11  -10.09     0.002000       0.8937    2.8815    0.3807
  146.86   88.95  178.94     0.002000       0.6631    3.8983    0.3752
  141.85   91.63 -169.19     0.002000       0.9032    2.6664    0.4082
  106.79   90.28    0.88     0.002000       0.5259    3.7321    0.4962
 -136.90   89.15 -173.71     0.002000       0.8633    3.2682    0.3453
   95.34   89.95   -1.30     0.002000       0.5402    3.7857    0.4759
   86.25   98.08    4.94     0.002000       0.8694    1.7191    0.6657
  147.63   89.11  178.48     0.002000       0.6213    3.8582    0.4052
   95.59   95.12   10.86     0.002000       0.8386    1.7937    0.6613
 -135.98   86.27 -168.10     0.002000       0.8454    2.0948    0.5598
  137.06   89.87 -174.64     0.002000       0.8105    3.4102    0.3525
   58.17   93.81  -11.58     0.002000       0.8281    1.8287    0.6567
   71.81   91.87  -12.65     0.002000       0.8602    2.2846    0.5033
  110.00   89.06  -12.97     0.002000       0.8636    2.3339    0.4904
 -174.64   90.89 -176.40     0.002000       0.7656    3.6123    0.3513
   92.55   89.16   -7.44     0.002000       0.8778    3.1558    0.3524
  100.31   90.13    0.55     0.002000       0.5579    3.9488    0.4407
  163.69   82.10 -176.50     0.002000       0.8873    1.8497    0.6052
   51.90   89.66   -1.13     0.002000       0.5119    3.8515    0.4933
  119.08   90.32    5.50     0.002000       0.8199    3.3998    0.3495
 -134.05   94.44  172.30     0.002000       0.8320    1.6032    0.7470
 -148.53   91.32  169.54     0.002000       0.9034    2.7691    0.3924
 -140.73   90.59 -176.82     0.002000       0.7811    3.6051    0.3449
 -158.86   93.76 -173.77     0.002000       0.9045    2.2806    0.4786
  118.41   84.38    8.66     0.002000       0.8769    2.0845    0.5420
   74.51   85.07   -5.95     0.002000       0.9027    2.1683    0.5052
 -171.37   91.56  170.83     0.002000       0.9087    2.6989    0.4003
 -177.37   90.93  176.61     0.002000       0.7248    3.6417    0.3685
   89.03   89.04    2.34     0.002000       0.6809    3.7915    0.3763
 -140.60   81.95  178.67     0.002000       0.8594    1.6204    0.7152
   80.51   89.59    3.23     0.002000       0.6978    3.7150    0.3751
   66.69   87.49    1.74     0.002000       0.8280    1.5042    0.8006
 -137.98   88.99  170.93     0.002000       0.8985    2.9514    0.3691
  118.62   89.46   11.47     0.002000       0.8934    2.6924    0.4087
   82.17   85.37    8.73     0.002000       0.8824    2.2010    0.5092
  105.71   90.65   -0.19     0.002000       0.5178    3.7100    0.5070
   49.74   89.95   -1.51     0.002000       0.5769    3.8642    0.4359
   66.31   90.03    1.27     0.002000       0.5315    3.7823    0.4842
  125.97   89.56   11.10     0.002000       0.8949    2.7426    0.4003
   80.48   97.83    4.18     0.002000       0.8857    1.8437    0.6084
   63.15   89.54   -1.22     0.002000       0.5292    3.8448    0.4780
  125.58   97.01   -1.39     0.002000       0.9054    1.9526    0.5609
  144.00   86.80 -171.28     0.002000       0.8328    1.6067    0.7446
  106.89   89.13  -10.64     0.002000       0.8983    2.8006    0.3901
   88.31   86.79    4.57     0.002000       0.8348    1.5272    0.7820
  162.25   89.17  174.87     0.002000       0.8254    3.4281    0.3438
 -160.92   88.01 -167.26     0.002000       0.8262    1.9907    0.6037
  170.71   90.79  173.42     0.002000       0.8585    3.2244    0.3525
  123.82   90.19    0.49     0.002000       0.5606    3.9359    0.4401
 -165.19   90.23 -179.52     0.002000       0.5517    3.9128    0.4500
 -139.85   89.15 -176.80     0.002000       0.7496    3.6866    0.3513
  127.81   89.61    0.39     0.002000       0.5654    3.9369    0.4363
 -173.29   89.49  178.81     0.002000       0.5252    3.8143    0.4857
   92.84   88.76   -9.36     0.002000       0.9029    2.9294    0.3702
   72.74   89.34  -13.23     0.002000       0.8276    2.0042    0.5985
 -156.89   91.03  179.01     0.002000       0.6346    3.8826    0.3940
   94.48   89.92  -12.08     0.002000       0.8868    2.5982    0.4273
 -136.46   91.12  171.64     0.002000       0.8948    3.0309    0.3605
  151.04   89.94  178.39     0.002000       0.5970    3.8877    0.4185
   53.42   89.08   -5.27     0.002000       0.8333    3.3827    0.3455
  175.92   90.49  174.90     0.002000       0.7945    3.4342    0.3571
   98.07   89.59   -0.53     0.002000       0.5210    3.6993    0.5055
  102.11   90.77    2.95     0.002000       0.7126    3.7221    0.3664
 -159.46   87.99  171.29     0.002000       0.9074    2.5683    0.4219
   58.55   89.86   -1.54     0.002000       0.5798    3.8740    0.4326
  155.66   91.81 -167.87     0.002000       0.8222    1.8024    0.6713
  173.73   94.02  168.49     0.002000       0.8529    2.1190    0.5483
   73.59   90.59    0.02     0.002000       0.6706    3.9717    0.3638
  178.11   88.96 -177.70     0.002000       0.6876    3.7515    0.3767
  141.90   89.92 -179.69     0.002000       0.5263    3.9329    0.4693
  130.91   94.05  -10.50     0.002000       0.8337    1.7005    0.7023
   51.91   89.62   -1.16     0.002000       0.5207    3.7910    0.4931
   97.16   89.66   11.13     0.002000       0.8945    2.7498    0.3993
 -154.72   86.34  167.75     0.002000       0.8334    1.9896    0.5987
 -139.73   91.07  171.12     0.002000       0.8971    2.9729    0.3670
  123.25   93.28   12.55     0.002000       0.8319    1.9327    0.6179
 -152.07   89.44  179.42     0.002000       0.5891    3.9071    0.4219
   92.17   84.24  -10.66     0.002000       0.8477    1.8874    0.6210
  100.67   90.84   -0.73     0.002000       0.5159    3.7824    0.4988
   87.84   93.93   12.29     0.002000       0.8392    1.9932    0.5934
   71.61   93.95   11.74     0.002000       0.8536    2.1304    0.5448
  107.88   89.51   -0.64     0.002000       0.5231    3.7097    0.5020
  148.94   90.89 -172.93     0.002000       0.9039    2.9317    0.3690
  136.84   89.29  179.91     0.002000       0.6256    3.9487    0.3926
   51.72   91.03    5.70     0.002000       0.8285    1.5302    0.7863
  142.16   92.63 -168.00     0.002000       0.8254    1.7990    0.6700
 -166.96   90.96 -174.59     0.002000       0.8362    3.3395    0.3489
  102.13   91.26   10.96     0.002000       0.9012    2.7302    0.3992
 -159.19   91.02 -168.52     0.002000       0.8923    2.6150    0.4217
  106.26   83.76   -4.28     0.002000       0.8483    1.5676    0.7494
 -175.37   90.40 -167.09     0.002000       0.8448    2.1937    0.5344
   70.69   89.71   -3.67     0.002000       0.7236    3.6561    0.3677
   70.68   82.27   -2.82     0.002000       0.8587    1.6079    0.7215
 -137.12   90.64  166.83     0.002000       0.8356    2.1141    0.5613
 -154.98   92.78  167.39     0.002000       0.8338    2.0424    0.5827
   80.09   90.91   -8.01     0.002000       0.8879    3.0829    0.3570
  104.08   90.60   -5.42     0.002000       0.8394    3.3881    0.3420
  124.59   89.86    0.43     0.002000       0.5597    3.9393    0.4405
  101.53   90.00   -0.95     0.002000       0.5264    3.7266    0.4965
  130.98   90.64   -3.74     0.002000       0.7745    3.6248    0.3458
  126.74   87.38   12.25     0.002000       0.8270    1.8044    0.6666
  117.85   90.67    8.80     0.002000       0.8913    3.0058    0.3652
 -175.46   88.25  171.37     0.002000       0.9104    2.6424    0.4083
   98.68   90.24   -0.57     0.002000       0.5231    3.7004    0.5033
   89.07   94.78   10.79     0.002000       0.8360    1.7579    0.6771
   78.88   86.23    1.17     0.002000       0.8343    1.5109    0.7909
   71.14   90.08    1.31     0.002000       0.6079    3.9399    0.4052
  100.77   90.28    1.28     0.002000       0.5502    3.8667    0.4570
   87.17   88.65   -9.76     0.002000       0.9057    2.8602    0.3783
 -142.61   90.50  179.14     0.002000       0.5148    3.8834    0.4862
 -148.85   95.99 -173.92     0.002000       0.8889    2.0463    0.5447
   77.31   94.47   -9.73     0.002000       0.8731    2.1894    0.5176
   57.64   88.81   13.18     0.002000       0.8289    2.0301    0.5898
  179.45   89.51  179.77     0.002000       0.6715    3.9373    0.3666
 -162.32   88.91  171.96     0.002000       0.8912    3.0537    0.3592
   82.53   90.30    0.09     0.002000       0.5592    3.9481    0.4399
  167.65   92.86 -167.99     0.002000       0.8595    2.2302    0.5162
 -137.79   90.79 -169.86     0.002000       0.8976    2.8255    0.3868
 -146.88   85.47  172.18     0.002000       0.8864    2.2000    0.5070
   94.93   89.97   -1.46     0.002000       0.6568    3.9716    0.3715
  176.29   90.83 -174.72     0.002000       0.8229    3.3655    0.3518
  141.22   89.20  179.13     0.002000       0.5965    3.9030    0.4171
  162.74   95.56 -169.59     0.002000       0.8457    1.9282    0.6090
   94.39   92.58   12.17     0.002000       0.8702    2.3200    0.4895
   95.99   89.90   -1.71     0.002000       0.6036    3.9074    0.4116
  100.22   89.87   -0.25     0.002000       0.5226    3.6840    0.5060
   74.22   84.19    9.98     0.002000       0.8576    1.9909    0.5812
  134.84   82.02  174.57     0.002000       0.8619    1.6925    0.6824
  125.78   81.61    2.65     0.002000       0.8692    1.6573    0.6912
 -163.84   89.30  175.42     0.002000       0.7781    3.4913    0.3584
   95.71   90.80   11.14     0.002000       0.8967    2.7328    0.4009
  104.37   90.78    0.71     0.002000       0.6169    3.9246    0.4009
 -163.00   91.05  172.74     0.002000       0.8798    3.1476    0.3525
  152.61   95.74 -173.15     0.002000       0.8851    2.0727    0.5400
  132.42   89.12   -7.67     0.002000       0.8811    3.1222    0.3551
  147.45   89.54 -178.84     0.002000       0.5282    3.8465    0.4787
  162.20   89.36 -179.34     0.002000       0.6932    3.9057    0.3580
  159.00   91.88 -168.67     0.002000       0.8946    2.5423    0.4331
   58.31   90.52    5.54     0.002000       0.8584    3.2580    0.3482
   92.74   87.78  -12.56     0.002000       0.8655    2.3069    0.4951
  114.51   94.92    7.07     0.002000       0.8405    1.5921    0.7446
  118.32   89.00  -12.53     0.002000       0.8790    2.4718    0.4540
   54.45   97.43    2.55     0.002000       0.8540    1.5934    0.7322
   58.27   90.01   10.90     0.002000       0.8946    2.7727    0.3959
  143.41   89.18  179.14     0.002000       0.5170    3.8412    0.4898
  101.25   89.87    0.73     0.002000       0.5238    3.7077    0.5015
  156.07   90.84  166.88     0.002000       0.8463    2.1900    0.5344
  109.35   89.09   11.40     0.002000       0.8953    2.6931    0.4077
 -141.51   89.27 -178.43     0.002000       0.6186    3.8490    0.4081
   96.70   89.98    1.53     0.002000       0.6494    3.9652    0.3765
   72.39   89.53   -0.52     0.002000       0.6747    3.9747    0.3612
  160.11   96.47  179.31     0.002000       0.9100    1.9990    0.5448
  109.21   91.14   -9.09     0.002000       0.9035    2.9367    0.3689
  167.97   98.29 -176.85     0.002000       0.8679    1.7001    0.6744
   71.09   91.26   -9.48     0.002000       0.9046    2.8880    0.3750
   99.18   89.01  -10.84     0.002000       0.8987    2.7683    0.3947
 -138.47   89.22  179.32     0.002000       0.6308    3.9117    0.3933
   67.21   95.13    4.07     0.002000       0.9130    2.1357    0.5071
  110.40   90.36   -1.27     0.002000       0.5340    3.8065    0.4787
   91.02   91.30  -11.38     0.002000       0.8972    2.6646    0.4113
  100.12   92.96    9.43     0.002000       0.8333    1.6258    0.7354
  159.15   90.05 -166.82     0.002000       0.8298    2.0493    0.5835
   60.14   95.86    6.04     0.002000       0.8928    2.0662    0.5369
  127.64   90.43   11.70     0.002000       0.8914    2.6500    0.4164
  178.45   89.62 -170.26     0.002000       0.8933    2.8705    0.3824
   53.84   88.78  -10.23     0.002000       0.9022    2.8071    0.3873
  107.72   89.31    4.37     0.002000       0.7838    3.5366    0.3510
  168.09   91.22 -169.00     0.002000       0.8988    2.6812    0.4079
   82.22   96.67   -1.27     0.002000       0.8503    1.5601    0.7513
 -143.24   82.44 -173.42     0.002000       0.8634    1.8114    0.6356
  100.35   89.78   -0.99     0.002000       0.5271    3.7325    0.4950
  151.26   90.99 -176.41     0.002000       0.7679    3.6180    0.3498
  159.96   89.95  178.42     0.002000       0.5757    3.8557    0.4379
   59.14   90.14   -1.00     0.002000       0.6034    3.9508    0.4071
  131.27   89.66    1.29     0.002000       0.5396    3.8193    0.4720
  165.66   88.66  169.36     0.002000       0.9027    2.7484    0.3958
 -168.92   94.29 -171.17     0.002000       0.8782    2.2113    0.5092
  171.35   90.97  177.83     0.002000       0.6987    3.7975    0.3658
   80.91   82.74    4.38     0.002000       0.8528    1.6076    0.7267
  178.41   86.40 -168.21     0.002000       0.8516    2.1461    0.5420
  153.36   89.91 -179.54     0.002000       0.5229    3.9247    0.4735
   87.03   90.12   -0.23     0.002000       0.5501    3.9508    0.4468
 -170.94   91.04  170.88     0.002000       0.8977    2.9353    0.3716
 -154.51   90.97  176.48     0.002000       0.7550    3.6537    0.3521
  168.26   89.94 -178.64     0.002000       0.6482    3.9262    0.3811
  169.49   90.97 -179.01     0.002000       0.6227    3.8663    0.4033
  169.98   97.84  176.30     0.002000       0.8585    1.6345    0.7097
  150.72   87.29 -169.07     0.002000       0.8866    2.4108    0.4616
   91.87   90.84   -3.97     0.002000       0.7896    3.6101    0.3407
 -143.59   89.85 -170.75     0.002000       0.8896    2.9408    0.3744
  107.11   89.38    0.99     0.002000       0.5191    3.7618    0.4986
   92.20   90.00    1.00     0.002000       0.5265    3.7354    0.4952
   86.95   89.10    2.26     0.002000       0.7224    3.8159    0.3518
 -155.63   81.49  178.10     0.002000       0.8725    1.7128    0.6658
   88.69   89.44    6.80     0.002000       0.8593    3.2412    0.3503
  155.13   89.93  173.27     0.002000       0.8481    3.2429    0.3548
   76.24   89.06    3.94     0.002000       0.7694    3.5875    0.3523
  163.51   90.38  169.24     0.002000       0.8956    2.7707    0.3957
 -163.73   90.09  178.80     0.002000       0.5742    3.8991    0.4338
 -178.91   83.30 -171.09     0.002000       0.8494    1.8147    0.6450
   44.55   85.33  -11.46     0.002000       0.8368    1.9190    0.6186
   95.52   88.83   -0.10     0.002000       0.5162    3.7752    0.4995
   96.87   89.11    9.76     0.002000       0.8983    2.9014    0.3759
   55.56   89.58   -0.60     0.002000       0.6738    3.9644    0.3627
  119.49   90.05   -5.19     0.002000       0.8018    3.4566    0.3514
  133.94   91.49  -12.38     0.002000       0.8805    2.4549    0.4564
  100.45   90.01   -0.36     0.002000       0.5223    3.6868    0.5060
 -166.09   90.47  178.95     0.002000       0.5265    3.8699    0.4772
  135.85   90.26  179.29     0.002000       0.5730    3.9284    0.4314
   82.39   90.22   -1.33     0.002000       0.5477    3.8198    0.4649
  178.07   92.40  167.20     0.002000       0.8318    2.0302    0.5877
   79.80   89.32   11.18     0.002000       0.8954    2.7317    0.4017
 -146.75   89.61  178.77     0.002000       0.5300    3.8573    0.4756
  125.70   90.19   -1.81     0.002000       0.6154    3.8686    0.4081
 -142.57   90.85  178.18     0.002000       0.6268    3.8323    0.4045
   99.16   89.53   -2.76     0.002000       0.6742    3.7764    0.3817
   58.85   89.60    1.13     0.002000       0.5271    3.7676    0.4902
  109.53   89.74    1.36     0.002000       0.5474    3.8164    0.4657
  109.01   90.82   -7.66     0.002000       0.8969    3.0044    0.3626
   82.68   91.26  -12.28     0.002000       0.8818    2.4920    0.4487
 -152.73   90.01  178.40     0.002000       0.6219    3.9160    0.3985
   66.39   89.53    1.12     0.002000       0.5292    3.7724    0.4876
   76.19   90.55   12.59     0.002000       0.8763    2.4657    0.4566
   93.19   89.14  -10.04     0.002000       0.8981    2.8700    0.3803
 -170.56   85.37  168.51     0.002000       0.8332    1.9008    0.6274
 -134.73   92.95  169.75     0.002000       0.8254    1.6754    0.7202
 -163.24   90.14 -178.68     0.002000       0.5806    3.8822    0.4310
  171.03   89.91 -178.62     0.002000       0.5655    3.8447    0.4471
 -147.61   90.09 -178.57     0.002000       0.5697    3.8533    0.4427
 -160.74   91.02 -178.78     0.002000       0.6600    3.8597    0.3810
 -136.05   89.44  179.87     0.002000       0.6714    3.9524    0.3652
  115.26   81.41    1.92     0.002000       0.8748    1.6842    0.6756
   53.68   91.19  -12.37     0.002000       0.8752    2.4349    0.4631
 -156.68   90.61 -174.36     0.002000       0.8625    3.2028    0.3528
   56.89   92.87   12.32     0.002000       0.8563    2.2169    0.5214
  100.71   86.65  -12.01     0.002000       0.8298    1.8081    0.6630
  115.20   97.71   -4.31     0.002000       0.8872    1.8587    0.6023
 -179.54   90.88 -178.16     0.002000       0.6390    3.8036    0.3998
   93.51   89.65    1.39     0.002000       0.5559    3.8503    0.4542
 -132.80   88.20 -167.94     0.002000       0.8794    2.4386    0.4601
 -132.88   86.49 -170.09     0.002000       0.8804    2.3108    0.4855
  129.85   88.97    6.95     0.002000       0.8795    3.1937    0.3473
   78.97   86.88   11.22     0.002000       0.8276    1.7310    0.6948
   85.80   88.97   -2.77     0.002000       0.7277    3.7473    0.3560
  168.78   90.05  178.46     0.002000       0.6236    3.9111    0.3979
 -139.44   90.71 -178.87     0.002000       0.7018    3.8889    0.3551
   84.56   89.60   10.05     0.002000       0.8948    2.8824    0.3801
  144.05   82.51  172.56     0.002000       0.8609    1.7969    0.6428
  101.29   88.09   12.33     0.002000       0.8788    2.4270    0.4627
   98.77   89.33  -13.30     0.002000       0.8431    2.1625    0.5435
  118.98   86.17  -11.04     0.002000       0.8717    2.2413    0.5062
   99.02   86.47   -2.50     0.002000       0.8364    1.5132    0.7878
   66.17   82.04    3.55     0.002000       0.8855    1.8402    0.6097
 -173.28   86.67  170.33     0.002000       0.8854    2.3389    0.4767
