MORPHOLOGY AT STRAIN =    1.0000  FOR PHASE  1
   0.613   2.691   0.597  <-- AXES OF PHASE ELLIPSOID
   90.00   90.00   -0.00  <-- EULER ANGLES OF PHASE ELLIPSOID (deg)
   0.718   2.763   0.521  <-- AVERAGE OF GRAIN AXES FOR PHASE
   0.139   0.211   0.183  <-- STANDARD DEV OF AVG GRAIN AXES FOR PHASE
B       500
  133.38   90.28    4.60     0.002000       0.7168    2.0325    0.6811
  140.27   87.63  172.59     0.002000       0.7848    2.4817    0.5067
   78.06   90.00   -8.51     0.002000       0.8509    2.8154    0.4098
  122.27   88.55    7.43     0.002000       0.8698    2.7309    0.4134
   75.83   90.09    0.06     0.002000       0.5767    3.5558    0.4756
   95.97   89.61   -0.80     0.002000       0.5367    3.4674    0.5248
 -138.22   91.59 -172.27     0.002000       0.8200    2.6202    0.4583
  126.15   89.92   -0.84     0.002000       0.6358    3.5272    0.4348
  116.35   91.58   -1.97     0.002000       0.7248    1.9799    0.6920
  178.08   93.67 -176.40     0.002000       0.7270    2.0788    0.6562
   59.06   89.52   -1.05     0.002000       0.5985    3.5330    0.4613
  111.11   90.42    0.62     0.002000       0.5400    3.4683    0.5215
 -137.79   94.28  177.92     0.002000       0.7400    2.0570    0.6517
  165.08   90.56 -171.76     0.002000       0.8429    2.7584    0.4226
 -166.76   90.63 -172.00     0.002000       0.7982    2.5945    0.4759
  169.94   90.40  179.13     0.002000       0.5442    3.5345    0.5074
 -140.67   90.29  178.97     0.002000       0.5552    3.5044    0.5017
 -145.51   88.97  174.58     0.002000       0.8204    3.1611    0.3767
 -149.69   87.38  174.00     0.002000       0.7261    2.1803    0.6258
 -169.75   88.91  178.01     0.002000       0.7032    3.4181    0.4059
  169.75   87.32  173.76     0.002000       0.7312    2.2304    0.6072
   90.58   91.05   -6.84     0.002000       0.8650    3.0317    0.3729
  119.41   90.78    0.19     0.002000       0.5287    3.5326    0.5226
   90.07   90.15   -8.50     0.002000       0.8299    2.7111    0.4371
  139.40   89.08  179.29     0.002000       0.6915    3.4815    0.4049
  134.88   92.43 -172.74     0.002000       0.7848    2.4688    0.5094
  102.92   90.26    0.71     0.002000       0.5411    3.4663    0.5208
 -134.19   89.01 -174.11     0.002000       0.8512    3.0833    0.3723
   95.35   89.94   -1.02     0.002000       0.5510    3.4908    0.5076
   82.92   94.35    1.28     0.002000       0.7499    2.0435    0.6474
  136.25   89.22  179.11     0.002000       0.6154    3.5184    0.4505
   85.11   93.56    3.21     0.002000       0.7350    2.0424    0.6609
   59.46   94.18   -4.00     0.002000       0.7415    2.1367    0.6256
  137.97   89.86 -176.22     0.002000       0.6878    3.3817    0.4199
   73.89   93.30   -3.33     0.002000       0.7277    2.0450    0.6667
   81.74   92.80   -6.05     0.002000       0.7345    2.2032    0.6121
  105.38   88.57   -6.84     0.002000       0.7304    2.2186    0.6112
  176.80   91.04 -177.01     0.002000       0.7516    3.3231    0.3907
   92.66   89.25   -6.68     0.002000       0.8397    3.0885    0.3771
  106.76   89.87    0.49     0.002000       0.5786    3.5552    0.4742
  166.13   84.97 -179.10     0.002000       0.7746    2.1062    0.6076
   52.58   89.68   -1.00     0.002000       0.5321    3.5202    0.5211
  117.11   90.35    3.94     0.002000       0.7031    3.3710    0.4121
   60.37   87.68    1.86     0.002000       0.7208    1.9881    0.6928
 -146.32   91.56  172.16     0.002000       0.8007    2.5790    0.4773
 -144.15   90.55 -176.68     0.002000       0.8220    3.2200    0.3686
 -166.48   93.67 -177.10     0.002000       0.8593    2.3159    0.4961
  127.44   85.13    2.91     0.002000       0.7965    2.1846    0.5690
   68.61   85.69   -2.29     0.002000       0.8425    2.2583    0.5195
 -162.70   92.23  173.48     0.002000       0.8395    2.5477    0.4605
 -167.21   91.05  177.80     0.002000       0.6570    3.4427    0.4315
   99.12   89.05    1.41     0.002000       0.6434    3.4980    0.4334
 -137.72   86.41  179.27     0.002000       0.7326    2.0068    0.6751
   84.77   89.52    2.16     0.002000       0.6236    3.4949    0.4477
   80.41   89.05    0.34     0.002000       0.7182    1.9647    0.7038
 -137.02   89.09  171.81     0.002000       0.8570    2.8206    0.4060
  118.81   89.43    8.18     0.002000       0.7674    2.4762    0.5196
   92.57   85.44    3.39     0.002000       0.8105    2.2381    0.5453
  101.00   90.51   -0.20     0.002000       0.5374    3.4552    0.5261
   50.22   89.96   -0.99     0.002000       0.5853    3.5141    0.4744
   68.94   89.96    1.04     0.002000       0.5443    3.4898    0.5140
  125.59   89.60    8.25     0.002000       0.7813    2.5313    0.4988
   77.52   94.99    1.14     0.002000       0.7759    2.1043    0.6071
   62.97   89.54   -1.00     0.002000       0.5456    3.5155    0.5089
  125.96   94.98   -0.58     0.002000       0.8114    2.1660    0.5633
  141.66   88.78 -177.14     0.002000       0.7195    1.9889    0.6938
  106.69   89.08   -8.25     0.002000       0.8030    2.6033    0.4714
   91.61   88.77    1.47     0.002000       0.7225    1.9712    0.6972
  156.75   88.95  175.37     0.002000       0.8059    3.2008    0.3785
 -147.05   87.36 -175.38     0.002000       0.7175    2.0858    0.6627
  172.16   90.76  174.63     0.002000       0.7804    3.2058    0.3906
  117.39   90.11    0.19     0.002000       0.5624    3.5556    0.4878
 -172.88   90.15 -179.75     0.002000       0.5575    3.5425    0.4940
   46.85   90.97   -2.94     0.002000       0.7582    3.3405    0.3851
  120.99   89.87    0.36     0.002000       0.5870    3.5460    0.4686
 -174.41   89.51  179.03     0.002000       0.5400    3.5034    0.5161
   92.24   88.73   -8.10     0.002000       0.8522    2.7675    0.4165
   72.23   89.50   -5.60     0.002000       0.7191    2.0896    0.6600
 -147.70   90.82  179.42     0.002000       0.6521    3.4938    0.4280
   94.73   89.97   -7.95     0.002000       0.7501    2.3885    0.5518
 -136.70   91.06  172.22     0.002000       0.8680    2.9167    0.3870
  150.26   89.87  178.94     0.002000       0.6069    3.5119    0.4578
   49.76   89.04   -4.03     0.002000       0.7424    3.3101    0.3974
 -179.97   90.57  176.47     0.002000       0.6714    3.3907    0.4290
   96.63   89.63   -0.41     0.002000       0.5389    3.4493    0.5256
   92.69   90.80    1.83     0.002000       0.6491    3.4853    0.4312
 -169.86   87.21  174.22     0.002000       0.8441    2.4672    0.4733
   58.60   89.87   -1.02     0.002000       0.5884    3.5171    0.4715
  141.49   91.99 -176.04     0.002000       0.7169    2.0315    0.6814
 -172.12   94.27  176.00     0.002000       0.7497    2.1512    0.6144
   76.49   90.45   -0.06     0.002000       0.7070    3.4978    0.3940
 -170.60   88.98 -178.64     0.002000       0.6610    3.4598    0.4266
  143.48   89.88 -179.63     0.002000       0.5395    3.5550    0.5087
  135.34   92.21   -3.30     0.002000       0.7248    2.0109    0.6810
   57.76   89.75   -0.98     0.002000       0.5371    3.4926    0.5205
   97.32   89.64    8.29     0.002000       0.7823    2.5359    0.4972
 -168.61   86.28  175.88     0.002000       0.7282    2.0945    0.6502
 -140.38   90.97  171.89     0.002000       0.8617    2.8518    0.3992
  109.47   93.27    4.21     0.002000       0.7301    2.0733    0.6553
 -161.75   89.67  179.65     0.002000       0.6030    3.5262    0.4587
   81.62   85.74   -2.99     0.002000       0.7461    2.0760    0.6403
  101.97   90.74   -0.62     0.002000       0.5366    3.4888    0.5216
   75.62   93.81    4.29     0.002000       0.7380    2.1007    0.6396
   58.96   94.28    4.47     0.002000       0.7531    2.1612    0.6087
  103.21   89.53   -0.48     0.002000       0.5398    3.4544    0.5239
  141.63   91.35 -174.36     0.002000       0.9004    2.7076    0.4025
  143.55   89.59  179.76     0.002000       0.6507    3.5165    0.4261
   64.42   89.98    1.90     0.002000       0.7172    1.9713    0.7023
  127.33   92.48 -176.25     0.002000       0.7217    2.0323    0.6766
 -170.98   91.04 -175.92     0.002000       0.7406    3.2874    0.4012
   99.37   91.64    7.92     0.002000       0.7841    2.5196    0.4993
 -160.94   91.22 -172.42     0.002000       0.7519    2.4126    0.5447
  101.98   87.44   -0.95     0.002000       0.7295    1.9837    0.6861
 -177.81   90.56 -173.88     0.002000       0.7148    2.1539    0.6438
   67.77   89.67   -2.51     0.002000       0.6354    3.4771    0.4417
   71.63   86.70   -0.88     0.002000       0.7338    1.9999    0.6764
   48.57   88.94    5.96     0.002000       0.7166    2.1261    0.6507
 -140.38   93.29  175.42     0.002000       0.7245    2.1061    0.6498
   79.72   90.84   -7.45     0.002000       0.8602    2.9895    0.3807
  107.79   90.74   -5.23     0.002000       0.8438    3.1182    0.3711
  128.87   89.91    0.15     0.002000       0.5610    3.5568    0.4889
  100.19   89.97   -0.78     0.002000       0.5414    3.4625    0.5210
  137.63   90.74  176.50     0.002000       0.7813    3.2921    0.3793
  132.27   88.09    4.35     0.002000       0.7217    2.0352    0.6756
  118.41   90.60    8.16     0.002000       0.8617    2.8905    0.3936
  174.84   87.53  174.04     0.002000       0.8518    2.5213    0.4586
   98.00   90.18   -0.46     0.002000       0.5400    3.4502    0.5244
   79.75   93.18    3.29     0.002000       0.7312    2.0309    0.6682
   84.90   88.65    0.27     0.002000       0.7214    1.9670    0.6998
   73.03   89.91    0.91     0.002000       0.6268    3.5281    0.4410
   98.98   90.31    1.00     0.002000       0.5636    3.5243    0.4914
   84.65   88.44   -7.88     0.002000       0.8364    2.6766    0.4394
 -133.46   90.62  179.31     0.002000       0.5372    3.5338    0.5141
 -154.64   94.75 -178.03     0.002000       0.8093    2.1882    0.5589
   89.09   94.60   -3.60     0.002000       0.7919    2.2173    0.5636
   66.12   88.34    5.52     0.002000       0.7186    2.0984    0.6577
 -177.37   89.65  179.81     0.002000       0.7059    3.4716    0.3977
 -162.33   88.95  172.53     0.002000       0.8644    2.9534    0.3836
   90.88   90.06    0.18     0.002000       0.5766    3.5570    0.4756
  153.19   93.80 -175.14     0.002000       0.7409    2.1848    0.6120
 -136.67   90.66 -171.83     0.002000       0.8142    2.6502    0.4563
 -155.56   85.61  176.66     0.002000       0.8227    2.2534    0.5333
   94.53   89.95   -1.01     0.002000       0.6742    3.5154    0.4112
  171.75   90.92 -176.25     0.002000       0.7096    3.3344    0.4128
  130.53   89.40   -0.46     0.002000       0.6049    3.5327    0.4564
  148.14   94.43 -177.43     0.002000       0.7456    2.0889    0.6366
   82.84   93.60    5.79     0.002000       0.7506    2.2313    0.5911
   95.68   89.89   -1.12     0.002000       0.6121    3.5218    0.4525
   98.26   89.86   -0.19     0.002000       0.5398    3.4421    0.5258
   86.03   85.23    2.83     0.002000       0.7631    2.1242    0.6114
  127.41   85.88   -0.84     0.002000       0.7424    2.0266    0.6596
  125.68   86.02    0.92     0.002000       0.7422    2.0205    0.6618
 -170.62   89.18  176.87     0.002000       0.6690    3.4042    0.4287
   94.62   90.98    8.16     0.002000       0.7793    2.5198    0.5024
   94.29   90.50    0.28     0.002000       0.6269    3.5322    0.4404
 -161.99   91.06  173.48     0.002000       0.8455    3.0649    0.3774
  144.25   94.77 -178.12     0.002000       0.8090    2.1927    0.5580
  132.56   89.19   -6.94     0.002000       0.8450    3.0597    0.3784
  148.04   89.53 -179.06     0.002000       0.5440    3.5171    0.5102
  166.54   89.50 -179.38     0.002000       0.7312    3.4438    0.3870
  149.67   92.90 -173.38     0.002000       0.7628    2.3616    0.5487
   55.41   90.67    5.54     0.002000       0.8863    2.9582    0.3729
   83.36   86.98   -6.07     0.002000       0.7400    2.2149    0.6043
  106.52   92.33    1.89     0.002000       0.7273    1.9881    0.6866
  114.05   88.47   -7.31     0.002000       0.7394    2.2963    0.5828
   57.33   93.13    1.06     0.002000       0.7304    1.9962    0.6808
   58.62   89.98    8.30     0.002000       0.7915    2.5713    0.4844
  136.98   89.14  179.35     0.002000       0.5377    3.5158    0.5164
   99.26   89.89    0.60     0.002000       0.5401    3.4542    0.5236
  159.07   91.02  173.80     0.002000       0.7191    2.1518    0.6405
  110.50   88.94    8.10     0.002000       0.7690    2.4778    0.5181
   49.38   90.65   -0.94     0.002000       0.6088    3.5166    0.4557
   96.97   89.94    1.04     0.002000       0.6657    3.5200    0.4160
   73.99   89.62   -0.27     0.002000       0.7047    3.4986    0.3952
  159.84   94.78  179.53     0.002000       0.8230    2.1878    0.5496
  112.15   91.36   -7.85     0.002000       0.8639    2.7612    0.4116
  162.55   94.18 -179.62     0.002000       0.7420    2.0346    0.6573
   73.85   91.53   -7.83     0.002000       0.8458    2.7118    0.4286
   98.65   88.92   -8.16     0.002000       0.7921    2.5641    0.4854
 -146.85   89.46  179.60     0.002000       0.6503    3.5054    0.4278
   63.69   94.32    1.62     0.002000       0.8511    2.2601    0.5137
  109.95   90.31   -1.03     0.002000       0.5477    3.4996    0.5094
   94.67   91.78   -7.77     0.002000       0.7689    2.4556    0.5230
   94.14   91.65    2.99     0.002000       0.7245    1.9942    0.6871
  155.96   90.31 -174.36     0.002000       0.7140    2.1005    0.6613
   54.80   94.79    2.15     0.002000       0.8181    2.2058    0.5483
  125.78   90.70    8.03     0.002000       0.7585    2.4347    0.5349
  177.99   89.64 -171.76     0.002000       0.8318    2.7143    0.4356
   53.63   88.79   -8.01     0.002000       0.8095    2.6227    0.4639
  113.21   89.22    2.95     0.002000       0.6755    3.4283    0.4215
  164.91   91.60 -172.40     0.002000       0.7698    2.4757    0.5180
   86.05   92.70   -0.08     0.002000       0.7303    1.9844    0.6851
 -134.38   85.26 -178.92     0.002000       0.7542    2.0725    0.6344
   99.00   89.78   -0.80     0.002000       0.5418    3.4653    0.5202
  141.43   91.18 -177.52     0.002000       0.7152    3.3965    0.4016
  159.61   89.92  178.94     0.002000       0.5837    3.5092    0.4764
   55.68   89.91   -0.73     0.002000       0.6252    3.5282    0.4421
  130.08   89.69    1.00     0.002000       0.5512    3.5063    0.5051
  163.22   88.36  172.19     0.002000       0.7930    2.5543    0.4868
  179.46   94.38 -176.61     0.002000       0.8043    2.2338    0.5506
 -178.92   90.95  178.44     0.002000       0.7067    3.4337    0.4019
   86.34   86.79    1.03     0.002000       0.7329    1.9973    0.6782
 -166.67   85.79 -175.80     0.002000       0.7430    2.1563    0.6185
  160.28   89.80 -179.54     0.002000       0.5387    3.5508    0.5100
   79.14   89.93   -0.30     0.002000       0.5647    3.5584    0.4854
 -171.75   90.93  171.82     0.002000       0.8549    2.8116    0.4084
 -145.08   91.14  177.23     0.002000       0.7361    3.3699    0.3932
  168.34   89.94 -179.16     0.002000       0.6644    3.4946    0.4199
  159.04   90.72 -179.49     0.002000       0.6319    3.4998    0.4411
  170.74   93.45  179.01     0.002000       0.7304    2.0075    0.6769
  163.20   86.21 -174.39     0.002000       0.7789    2.2984    0.5524
  100.44   91.03   -3.03     0.002000       0.7469    3.3707    0.3874
 -143.10   89.80 -171.65     0.002000       0.8517    2.8172    0.4092
  105.42   89.47    0.86     0.002000       0.5374    3.4796    0.5223
   92.51   89.97    0.83     0.002000       0.5413    3.4676    0.5203
   93.31   89.13    2.08     0.002000       0.7484    3.4037    0.3827
 -155.70   85.53  179.33     0.002000       0.7459    2.0452    0.6503
   89.18   89.48    5.67     0.002000       0.7926    3.2079    0.3843
  155.04   89.90  174.67     0.002000       0.7548    3.2536    0.3980
   83.84   88.93    2.61     0.002000       0.6772    3.4350    0.4195
  162.78   90.29  171.78     0.002000       0.7945    2.5783    0.4812
 -161.14   90.21  179.14     0.002000       0.5904    3.5207    0.4694
 -168.06   85.59 -178.03     0.002000       0.7408    2.0593    0.6502
 -146.89   93.80 -176.39     0.002000       0.7333    2.0782    0.6508
   95.16   88.95   -0.07     0.002000       0.5370    3.4852    0.5217
   96.24   89.18    8.35     0.002000       0.8380    2.7338    0.4291
   56.93   89.66   -0.33     0.002000       0.7023    3.4947    0.3970
  120.46   90.04   -3.68     0.002000       0.6821    3.4065    0.4202
  139.39   92.08  172.96     0.002000       0.7412    2.2900    0.5830
   98.46   89.98   -0.28     0.002000       0.5396    3.4435    0.5258
 -161.70   90.53  179.15     0.002000       0.5451    3.5250    0.5079
  144.68   90.13  179.61     0.002000       0.5751    3.5504    0.4778
   83.28   90.21   -1.00     0.002000       0.5582    3.5052    0.4989
 -169.86   92.80  175.20     0.002000       0.7203    2.0987    0.6560
   80.64   89.20    8.18     0.002000       0.7782    2.5196    0.5032
 -147.85   89.59  178.98     0.002000       0.5464    3.5210    0.5074
  131.18   90.16   -1.21     0.002000       0.5888    3.5381    0.4683
   47.95   89.20    1.15     0.002000       0.6115    3.5095    0.4546
   93.49   89.48   -1.82     0.002000       0.6163    3.5148    0.4504
   64.11   89.56    0.90     0.002000       0.5412    3.4830    0.5181
  108.93   89.76    1.05     0.002000       0.5572    3.5055    0.4998
  113.86   91.14   -6.77     0.002000       0.8904    2.7897    0.3946
   88.20   91.95   -7.21     0.002000       0.7436    2.3150    0.5747
 -153.08   89.97  178.93     0.002000       0.6347    3.5064    0.4382
   70.42   89.52    0.89     0.002000       0.5429    3.4852    0.5161
   74.26   90.80    7.49     0.002000       0.7348    2.2952    0.5867
   93.83   89.21   -8.35     0.002000       0.8276    2.6965    0.4408
  174.38   86.03  176.75     0.002000       0.7302    2.0697    0.6563
   60.46   87.83    2.95     0.002000       0.7189    2.0028    0.6894
 -164.12   90.20 -179.17     0.002000       0.5928    3.5144    0.4683
  171.06   89.92 -179.11     0.002000       0.5741    3.5092    0.4845
 -147.17   90.08 -179.07     0.002000       0.5786    3.5110    0.4804
 -169.13   90.87 -179.21     0.002000       0.6744    3.4681    0.4169
   46.72   90.43    0.04     0.002000       0.7071    3.4857    0.3954
  115.60   85.72    0.66     0.002000       0.7480    2.0329    0.6525
   60.29   92.00   -6.89     0.002000       0.7360    2.2792    0.5900
 -159.86   90.74 -174.47     0.002000       0.8911    2.9068    0.3777
   45.00   93.67    5.38     0.002000       0.7409    2.1841    0.6121
   90.97   87.40   -3.90     0.002000       0.7270    2.0368    0.6701
  118.16   94.96   -1.14     0.002000       0.7796    2.1097    0.6026
  169.17   90.80 -178.90     0.002000       0.6214    3.4916    0.4497
   93.94   89.63    1.05     0.002000       0.5664    3.5180    0.4898
   56.33   92.83   -6.46     0.002000       0.7433    2.2865    0.5822
   60.13   94.27   -4.34     0.002000       0.7946    2.2707    0.5481
  131.17   88.95    6.28     0.002000       0.8519    3.0780    0.3728
   89.51   87.75    3.63     0.002000       0.7236    2.0178    0.6797
   75.95   88.88   -1.78     0.002000       0.6886    3.4600    0.4093
  167.93   89.97  178.98     0.002000       0.6373    3.5014    0.4371
 -143.68   90.60 -178.86     0.002000       0.7370    3.4344    0.3850
   84.33   89.63    8.47     0.002000       0.8299    2.7067    0.4379
  134.62   85.39  178.64     0.002000       0.7510    2.0606    0.6409
  109.24   87.25    6.74     0.002000       0.7443    2.2778    0.5838
   95.66   89.11   -6.28     0.002000       0.7236    2.1436    0.6391
  105.92   85.58   -4.40     0.002000       0.7744    2.2154    0.5770
   97.19   88.71   -0.64     0.002000       0.7227    1.9674    0.6984
   70.26   85.02    0.67     0.002000       0.7739    2.1007    0.6098
  174.01   85.89  175.39     0.002000       0.8022    2.2908    0.5380
