MORPHOLOGY AT STRAIN =    1.0000  FOR PHASE  1
   0.615   2.692   0.595  <-- AXES OF PHASE ELLIPSOID
   90.05   90.00   -0.00  <-- EULER ANGLES OF PHASE ELLIPSOID (deg)
   0.780   2.895   0.475  <-- AVERAGE OF GRAIN AXES FOR PHASE
   0.185   0.282   0.240  <-- STANDARD DEV OF AVG GRAIN AXES FOR PHASE
B       500
  138.49   89.80 -165.88     0.002000       0.8390    1.8068    0.6563
  146.57   88.37  168.87     0.002000       0.9091    2.6892    0.4019
   77.56   89.94   -9.55     0.002000       0.8936    2.9496    0.3716
  117.66   88.89    8.81     0.002000       0.9057    2.9530    0.3658
   86.02   90.30    0.35     0.002000       0.5679    4.0070    0.4264
  100.09   89.62   -1.02     0.002000       0.5142    3.7783    0.5010
   44.76   88.64  -10.10     0.002000       0.9088    2.8128    0.3836
  122.39   89.67   -1.09     0.002000       0.6091    4.0305    0.3948
  116.44   94.68   -7.85     0.002000       0.8573    1.5179    0.7663
 -165.49   93.80 -166.95     0.002000       0.8489    1.9447    0.6016
   67.76   89.48   -1.80     0.002000       0.6270    3.9142    0.3956
  120.33   90.40    0.84     0.002000       0.5224    3.7748    0.4936
 -152.44   96.41  169.19     0.002000       0.8583    1.8079    0.6409
  164.84   90.62 -170.45     0.002000       0.8973    2.9036    0.3761
 -167.28   90.70 -169.49     0.002000       0.9006    2.7861    0.3912
  163.92   90.27  178.96     0.002000       0.5229    3.9486    0.4705
 -142.80   90.28  178.60     0.002000       0.5423    3.8686    0.4634
 -142.18   89.08  173.56     0.002000       0.8679    3.2800    0.3423
 -140.45   88.19  166.54     0.002000       0.8719    2.2489    0.5046
 -157.94   89.04  177.01     0.002000       0.7322    3.7533    0.3532
  179.31   88.31  166.93     0.002000       0.8845    2.3643    0.4723
   88.93   90.97   -7.52     0.002000       0.8863    3.1723    0.3470
  173.18   90.32 -179.19     0.002000       0.5009    3.9295    0.4937
   89.81   90.12  -10.18     0.002000       0.8968    2.8834    0.3791
  148.89   88.94  178.77     0.002000       0.6628    3.9577    0.3695
  142.30   91.58 -168.94     0.002000       0.9087    2.6784    0.4037
  108.30   90.27    0.91     0.002000       0.5238    3.7706    0.4928
 -137.26   89.17 -173.62     0.002000       0.8648    3.2896    0.3424
   95.61   89.95   -1.33     0.002000       0.5384    3.8294    0.4718
   87.07   98.52    5.93     0.002000       0.8828    1.6847    0.6693
  149.82   89.13  178.25     0.002000       0.6311    3.8983    0.3946
   97.38   95.02   12.50     0.002000       0.8519    1.7838    0.6547
 -137.49   86.52 -167.20     0.002000       0.8627    2.1005    0.5470
  137.02   89.86 -174.38     0.002000       0.8251    3.3987    0.3474
   56.39   93.60  -13.16     0.002000       0.8428    1.8261    0.6462
   71.26   91.78  -13.30     0.002000       0.8771    2.2983    0.4904
  110.21   89.09  -13.56     0.002000       0.8798    2.3501    0.4779
 -173.32   90.86 -176.25     0.002000       0.7748    3.6406    0.3442
   92.62   89.16   -7.56     0.002000       0.8818    3.1598    0.3504
   99.21   90.17    0.53     0.002000       0.5546    4.0105    0.4363
  163.20   81.76 -175.90     0.002000       0.9001    1.8171    0.6075
   51.53   89.66   -1.13     0.002000       0.5088    3.9017    0.4897
  119.22   90.32    5.73     0.002000       0.8323    3.3917    0.3451
 -136.45   94.59  170.41     0.002000       0.8485    1.5688    0.7488
 -148.72   91.31  169.38     0.002000       0.9072    2.7758    0.3897
 -139.91   90.60 -176.82     0.002000       0.7764    3.6622    0.3413
 -157.52   93.71 -173.26     0.002000       0.9137    2.2690    0.4762
  117.02   84.45    9.48     0.002000       0.8874    2.0739    0.5383
   75.62   85.05   -6.55     0.002000       0.9117    2.1509    0.5043
 -172.03   91.51  170.57     0.002000       0.9141    2.7120    0.3959
 -178.65   90.89  176.29     0.002000       0.7491    3.6426    0.3562
   87.77   89.07    2.55     0.002000       0.6946    3.8218    0.3657
 -140.82   81.20  178.55     0.002000       0.8767    1.5763    0.7211
   80.07   89.60    3.49     0.002000       0.7200    3.7193    0.3629
   64.43   87.05    2.31     0.002000       0.8471    1.4428    0.8163
 -137.95   88.99  170.83     0.002000       0.9011    2.9569    0.3674
  118.74   89.44   11.62     0.002000       0.8987    2.7015    0.4048
   80.64   85.50    9.41     0.002000       0.8937    2.1955    0.5041
  109.57   90.68   -0.15     0.002000       0.5148    3.7461    0.5049
   49.49   89.95   -1.57     0.002000       0.5745    3.9201    0.4312
   65.77   90.04    1.30     0.002000       0.5294    3.8253    0.4804
  126.10   89.54   11.22     0.002000       0.8992    2.7501    0.3972
   81.04   98.15    4.84     0.002000       0.8974    1.8109    0.6115
   63.18   89.54   -1.24     0.002000       0.5261    3.8948    0.4743
  125.58   97.30   -1.49     0.002000       0.9175    1.9184    0.5636
  143.10   86.62 -169.42     0.002000       0.8500    1.5739    0.7451
  106.85   89.11  -10.74     0.002000       0.9021    2.8059    0.3876
   87.20   86.34    5.72     0.002000       0.8535    1.4728    0.7935
  162.95   89.19  174.75     0.002000       0.8299    3.4519    0.3394
 -161.90   88.19 -166.18     0.002000       0.8464    2.0011    0.5861
  170.56   90.79  173.23     0.002000       0.8657    3.2239    0.3496
  124.81   90.19    0.58     0.002000       0.5635    3.9934    0.4313
 -164.07   90.25 -179.43     0.002000       0.5539    3.9690    0.4416
 -141.27   89.18 -176.69     0.002000       0.7544    3.7265    0.3451
  129.78   89.57    0.34     0.002000       0.5625    3.9993    0.4314
 -173.43   89.50  178.78     0.002000       0.5233    3.8615    0.4812
   93.00   88.77   -9.48     0.002000       0.9054    2.9364    0.3682
   72.87   89.35  -14.24     0.002000       0.8474    2.0140    0.5816
 -158.97   91.02  178.84     0.002000       0.6359    3.9409    0.3871
   94.46   89.92  -12.32     0.002000       0.8945    2.6091    0.4218
 -136.61   91.11  171.52     0.002000       0.8974    3.0358    0.3589
  151.28   89.95  178.33     0.002000       0.5947    3.9500    0.4132
   53.69   89.09   -5.45     0.002000       0.8418    3.3899    0.3412
  175.62   90.49  174.59     0.002000       0.8146    3.4151    0.3501
   99.69   89.60   -0.55     0.002000       0.5182    3.7342    0.5033
  103.16   90.74    3.20     0.002000       0.7321    3.7359    0.3551
 -158.57   88.06  170.91     0.002000       0.9155    2.5753    0.4170
   58.44   89.87   -1.60     0.002000       0.5773    3.9310    0.4279
  156.68   91.69 -166.24     0.002000       0.8385    1.8015    0.6586
  172.27   93.80  167.66     0.002000       0.8692    2.1221    0.5372
   72.91   90.60   -0.01     0.002000       0.6646    4.0473    0.3599
  176.31   89.01 -177.46     0.002000       0.7027    3.7798    0.3656
  141.84   89.93 -179.72     0.002000       0.5259    3.9924    0.4624
  129.65   94.10  -12.33     0.002000       0.8486    1.6830    0.6973
   50.76   89.60   -1.17     0.002000       0.5181    3.8355    0.4895
   97.21   89.64   11.25     0.002000       0.8987    2.7566    0.3964
 -153.40   86.54  166.66     0.002000       0.8514    1.9949    0.5845
 -139.82   91.06  171.01     0.002000       0.8997    2.9771    0.3653
  124.74   93.05   13.83     0.002000       0.8489    1.9393    0.6034
 -150.19   89.41  179.32     0.002000       0.5894    3.9658    0.4151
   93.88   84.36  -12.03     0.002000       0.8602    1.8808    0.6142
  101.22   90.85   -0.73     0.002000       0.5125    3.8267    0.4960
   89.31   93.70   13.37     0.002000       0.8553    1.9966    0.5812
   72.96   93.74   12.52     0.002000       0.8687    2.1315    0.5350
  110.14   89.53   -0.67     0.002000       0.5207    3.7458    0.4992
  149.56   90.85 -172.83     0.002000       0.9023    2.9625    0.3656
  135.79   89.26  179.97     0.002000       0.6222    4.0218    0.3873
   51.12   91.26    7.01     0.002000       0.8473    1.4777    0.7966
  143.56   92.47 -166.35     0.002000       0.8411    1.7970    0.6582
 -166.65   90.95 -174.39     0.002000       0.8454    3.3426    0.3447
  102.29   91.25   11.12     0.002000       0.9056    2.7390    0.3959
 -159.29   91.05 -168.30     0.002000       0.8996    2.6252    0.4166
  107.73   83.09   -5.63     0.002000       0.8663    1.5216    0.7564
 -175.31   90.39 -166.32     0.002000       0.8654    2.2100    0.5177
   70.96   89.71   -3.94     0.002000       0.7464    3.6531    0.3566
   71.07   81.51   -3.53     0.002000       0.8760    1.5642    0.7273
 -137.47   90.57  165.98     0.002000       0.8568    2.1271    0.5438
 -156.18   92.58  166.39     0.002000       0.8540    2.0524    0.5660
   80.00   90.91   -8.12     0.002000       0.8907    3.0890    0.3551
  103.77   90.59   -5.41     0.002000       0.8379    3.4292    0.3383
  124.07   89.84    0.51     0.002000       0.5620    3.9978    0.4320
  102.46   90.01   -0.97     0.002000       0.5243    3.7645    0.4932
  130.16   90.62   -3.77     0.002000       0.7759    3.6723    0.3405
  125.89   87.45   13.84     0.002000       0.8426    1.8018    0.6553
  117.88   90.67    8.90     0.002000       0.8943    3.0086    0.3636
 -174.65   88.31  171.05     0.002000       0.9167    2.6524    0.4039
   99.73   90.26   -0.57     0.002000       0.5205    3.7354    0.5008
   90.79   94.70   12.50     0.002000       0.8496    1.7451    0.6712
   77.83   85.54    1.56     0.002000       0.8536    1.4510    0.8054
   70.74   90.10    1.32     0.002000       0.6034    4.0076    0.4010
  101.44   90.26    1.31     0.002000       0.5474    3.9202    0.4528
   87.41   88.67   -9.90     0.002000       0.9087    2.8694    0.3758
 -145.67   90.45  179.11     0.002000       0.5116    3.9379    0.4823
 -147.85   96.08 -173.18     0.002000       0.8988    2.0265    0.5440
   75.77   94.30  -10.44     0.002000       0.8853    2.1862    0.5112
   57.06   88.92   14.15     0.002000       0.8494    2.0406    0.5725
  178.67   89.48  179.80     0.002000       0.6659    4.0148    0.3623
 -162.17   88.92  171.83     0.002000       0.8940    3.0594    0.3573
   81.00   90.33    0.04     0.002000       0.5572    4.0086    0.4345
  168.66   92.70 -167.27     0.002000       0.8767    2.2416    0.5034
 -137.92   90.82 -169.76     0.002000       0.9012    2.8296    0.3847
 -145.53   85.55  171.58     0.002000       0.8971    2.1895    0.5034
   95.04   89.97   -1.49     0.002000       0.6535    4.0451    0.3663
  176.61   90.83 -174.48     0.002000       0.8358    3.3601    0.3469
  143.58   89.19  178.96     0.002000       0.6005    3.9553    0.4086
  164.65   95.38 -168.31     0.002000       0.8592    1.9247    0.6006
   95.22   92.45   12.77     0.002000       0.8845    2.3303    0.4793
   96.14   89.90   -1.76     0.002000       0.6009    3.9702    0.4067
  101.95   89.87   -0.26     0.002000       0.5200    3.7169    0.5039
   72.54   84.31   11.03     0.002000       0.8692    1.9830    0.5757
  136.28   81.60  173.17     0.002000       0.8762    1.6610    0.6842
  125.53   80.95    3.17     0.002000       0.8855    1.6167    0.6958
 -163.27   89.31  175.10     0.002000       0.8008    3.4750    0.3498
   95.68   90.82   11.27     0.002000       0.9013    2.7405    0.3976
  106.16   90.79    0.85     0.002000       0.6187    3.9844    0.3934
 -163.22   91.04  172.59     0.002000       0.8836    3.1526    0.3504
  154.09   95.72 -172.29     0.002000       0.8950    2.0593    0.5375
  132.52   89.12   -7.80     0.002000       0.8853    3.1246    0.3531
  147.35   89.55 -178.82     0.002000       0.5260    3.8972    0.4741
  161.20   89.34 -179.29     0.002000       0.6883    3.9798    0.3535
  159.54   91.81 -168.32     0.002000       0.9032    2.5557    0.4265
   58.52   90.50    5.49     0.002000       0.8543    3.3034    0.3449
   93.31   87.87  -13.17     0.002000       0.8814    2.3201    0.4833
  116.58   95.19    8.88     0.002000       0.8571    1.5543    0.7482
  118.46   89.01  -12.94     0.002000       0.8907    2.4867    0.4452
   54.51   98.21    3.02     0.002000       0.8716    1.5474    0.7390
   58.22   90.01   11.01     0.002000       0.8984    2.7779    0.3934
  145.36   89.22  179.09     0.002000       0.5142    3.8913    0.4859
  102.57   89.85    0.74     0.002000       0.5215    3.7432    0.4988
  155.99   90.83  166.10     0.002000       0.8668    2.2064    0.5176
  109.45   89.07   11.55     0.002000       0.9008    2.7022    0.4037
 -143.44   89.28 -178.23     0.002000       0.6284    3.8876    0.3975
   96.78   89.98    1.56     0.002000       0.6460    4.0368    0.3715
   71.94   89.51   -0.51     0.002000       0.6692    4.0509    0.3571
  160.16   96.72  179.30     0.002000       0.9222    1.9664    0.5466
  108.95   91.12   -9.19     0.002000       0.9055    2.9500    0.3663
  168.82   98.82 -175.99     0.002000       0.8832    1.6642    0.6773
   70.81   91.24   -9.60     0.002000       0.9071    2.8969    0.3727
   99.14   89.00  -10.96     0.002000       0.9029    2.7746    0.3919
 -137.18   89.21  179.24     0.002000       0.6290    3.9785    0.3875
   67.86   95.23    4.54     0.002000       0.9222    2.1097    0.5084
  110.81   90.36   -1.29     0.002000       0.5318    3.8525    0.4746
   90.90   91.28  -11.58     0.002000       0.9031    2.6737    0.4071
  101.59   92.97   11.31     0.002000       0.8491    1.5960    0.7354
  159.30   90.02 -165.87     0.002000       0.8515    2.0628    0.5648
   61.07   95.94    6.72     0.002000       0.9022    2.0447    0.5369
  127.69   90.44   11.89     0.002000       0.8975    2.6604    0.4119
  178.48   89.61 -170.16     0.002000       0.8967    2.8721    0.3807
   53.86   88.78  -10.35     0.002000       0.9058    2.8129    0.3850
  107.32   89.31    4.63     0.002000       0.8014    3.5322    0.3436
  168.18   91.21 -168.82     0.002000       0.9041    2.6904    0.4040
   81.39   97.51   -1.82     0.002000       0.8685    1.5100    0.7603
 -144.69   82.25 -172.17     0.002000       0.8750    1.7870    0.6359
  101.23   89.79   -1.01     0.002000       0.5251    3.7710    0.4916
  152.50   90.95 -176.15     0.002000       0.7853    3.6256    0.3411
  160.06   89.95  178.35     0.002000       0.5742    3.9114    0.4325
   59.59   90.16   -1.01     0.002000       0.5986    4.0211    0.4028
  131.70   89.66    1.32     0.002000       0.5379    3.8665    0.4674
  165.81   88.68  169.21     0.002000       0.9068    2.7557    0.3929
 -167.34   94.14 -170.50     0.002000       0.8907    2.2088    0.5027
  169.34   90.94  177.63     0.002000       0.7064    3.8394    0.3576
   79.54   82.10    5.64     0.002000       0.8693    1.5667    0.7318
  177.08   86.62 -167.39     0.002000       0.8689    2.1532    0.5294
  152.40   89.94 -179.56     0.002000       0.5219    3.9837    0.4670
   88.41   90.15   -0.19     0.002000       0.5485    4.0121    0.4410
 -171.01   91.03  170.76     0.002000       0.9006    2.9395    0.3698
 -156.25   90.93  176.23     0.002000       0.7698    3.6683    0.3438
  168.24   89.94 -178.60     0.002000       0.6454    3.9977    0.3756
  171.57   90.97 -178.84     0.002000       0.6262    3.9207    0.3953
  169.39   98.51  175.40     0.002000       0.8758    1.5947    0.7134
  149.82   87.41 -168.55     0.002000       0.8987    2.4219    0.4531
   91.08   90.82   -4.10     0.002000       0.7976    3.6355    0.3347
 -143.64   89.85 -170.65     0.002000       0.8929    2.9401    0.3731
  108.43   89.36    0.99     0.002000       0.5164    3.8034    0.4955
   92.56   90.00    1.02     0.002000       0.5243    3.7740    0.4919
   85.77   89.11    2.32     0.002000       0.7216    3.8733    0.3467
 -155.57   80.94  177.84     0.002000       0.8877    1.6738    0.6699
   88.63   89.43    6.95     0.002000       0.8655    3.2396    0.3479
  155.15   89.93  173.06     0.002000       0.8571    3.2341    0.3521
   75.58   89.09    4.18     0.002000       0.7872    3.5909    0.3439
  163.62   90.40  169.12     0.002000       0.8997    2.7763    0.3931
 -164.52   90.06  178.77     0.002000       0.5709    3.9614    0.4292
  179.30   83.28 -169.59     0.002000       0.8619    1.7997    0.6411
   46.04   85.49  -12.72     0.002000       0.8515    1.9177    0.6084
   96.85   88.82   -0.13     0.002000       0.5126    3.8191    0.4970
   96.92   89.09    9.84     0.002000       0.9012    2.9059    0.3741
   55.07   89.56   -0.59     0.002000       0.6683    4.0404    0.3585
  119.45   90.06   -5.44     0.002000       0.8172    3.4461    0.3458
  133.82   91.47  -12.81     0.002000       0.8926    2.4695    0.4474
  102.22   90.02   -0.37     0.002000       0.5196    3.7200    0.5038
 -167.54   90.44  178.91     0.002000       0.5238    3.9240    0.4727
  134.55   90.28   -0.80     0.002000       0.5761    3.9852    0.4227
   82.26   90.21   -1.37     0.002000       0.5455    3.8676    0.4608
  177.13   92.24  166.19     0.002000       0.8526    2.0414    0.5700
   79.85   89.30   11.31     0.002000       0.9000    2.7387    0.3985
 -146.83   89.62  178.75     0.002000       0.5273    3.9089    0.4715
  125.07   90.19   -1.98     0.002000       0.6269    3.9073    0.3964
 -144.43   90.83  177.95     0.002000       0.6388    3.8667    0.3932
   99.81   89.55   -3.00     0.002000       0.6935    3.7920    0.3694
   57.69   89.61    1.16     0.002000       0.5249    3.8093    0.4866
  109.90   89.74    1.40     0.002000       0.5457    3.8629    0.4612
  108.64   90.80   -7.72     0.002000       0.8964    3.0293    0.3597
   82.52   91.25  -12.65     0.002000       0.8928    2.5050    0.4407
 -152.82   90.01  178.36     0.002000       0.6189    3.9841    0.3933
   65.56   89.54    1.15     0.002000       0.5269    3.8147    0.4840
   76.16   90.56   13.00     0.002000       0.8882    2.4798    0.4477
   93.14   89.13  -10.14     0.002000       0.9013    2.8739    0.3784
 -168.86   85.57  167.14     0.002000       0.8488    1.9012    0.6157
 -136.46   92.87  167.86     0.002000       0.8409    1.6551    0.7157
 -163.15   90.13 -178.63     0.002000       0.5778    3.9425    0.4262
  170.96   89.92 -178.55     0.002000       0.5641    3.8981    0.4418
 -147.87   90.09 -178.51     0.002000       0.5677    3.9078    0.4378
 -159.17   91.01 -178.65     0.002000       0.6614    3.9186    0.3742
 -136.93   89.41  179.92     0.002000       0.6650    4.0280    0.3615
  115.11   80.79    2.25     0.002000       0.8904    1.6444    0.6801
   53.42   91.15  -12.83     0.002000       0.8880    2.4488    0.4537
 -156.30   90.60 -174.35     0.002000       0.8600    3.2408    0.3495
   57.77   92.72   13.01     0.002000       0.8729    2.2243    0.5096
  102.12   86.80  -13.63     0.002000       0.8446    1.8052    0.6525
  114.76   98.03   -4.93     0.002000       0.8990    1.8266    0.6050
 -177.67   90.86 -177.93     0.002000       0.6517    3.8373    0.3884
   93.52   89.65    1.43     0.002000       0.5535    3.9012    0.4500
 -133.26   88.27 -167.48     0.002000       0.8916    2.4518    0.4512
 -134.31   86.67 -169.45     0.002000       0.8931    2.3147    0.4778
  129.66   88.98    7.07     0.002000       0.8823    3.2054    0.3449
   77.58   86.96   12.98     0.002000       0.8424    1.7178    0.6881
   87.00   89.01   -2.96     0.002000       0.7405    3.7764    0.3470
  168.88   90.06  178.42     0.002000       0.6207    3.9800    0.3926
 -138.73   90.72 -178.85     0.002000       0.6974    3.9607    0.3506
   84.60   89.59   10.14     0.002000       0.8977    2.8852    0.3784
  145.62   82.34  171.16     0.002000       0.8730    1.7756    0.6416
  100.94   88.14   12.80     0.002000       0.8915    2.4407    0.4534
   98.98   89.37  -14.08     0.002000       0.8632    2.1768    0.5271
  120.36   86.36  -11.74     0.002000       0.8857    2.2457    0.4972
   99.87   85.87   -3.25     0.002000       0.8557    1.4542    0.8016
   65.53   81.69    4.20     0.002000       0.8976    1.8076    0.6125
 -172.03   86.81  169.74     0.002000       0.8981    2.3414    0.4694
