MORPHOLOGY AT STRAIN =    1.0000  FOR PHASE  1
   0.616   2.692   0.595  <-- AXES OF PHASE ELLIPSOID
   89.99   90.00   -0.00  <-- EULER ANGLES OF PHASE ELLIPSOID (deg)
   0.726   2.773   0.513  <-- AVERAGE OF GRAIN AXES FOR PHASE
   0.141   0.210   0.182  <-- STANDARD DEV OF AVG GRAIN AXES FOR PHASE
B       500
  134.44   90.25 -174.52     0.002000       0.7296    2.0103    0.6768
  141.52   87.83  172.11     0.002000       0.8043    2.5496    0.4807
   77.90   89.97   -8.58     0.002000       0.8591    2.8424    0.4019
  121.33   88.70    7.40     0.002000       0.8665    2.7697    0.4089
   78.54   90.19    0.17     0.002000       0.5806    3.5559    0.4724
   93.76   89.57   -0.84     0.002000       0.5388    3.4603    0.5239
 -137.66   91.51 -172.07     0.002000       0.8332    2.6729    0.4417
  124.83   89.84   -0.85     0.002000       0.6357    3.5381    0.4334
  116.30   91.88   -2.46     0.002000       0.7390    1.9260    0.6979
 -177.35   93.73 -175.28     0.002000       0.7390    2.0755    0.6466
   60.96   89.50   -1.21     0.002000       0.6054    3.5239    0.4572
  110.16   90.47    0.66     0.002000       0.5424    3.4595    0.5205
 -140.03   94.74  177.20     0.002000       0.7547    2.0388    0.6447
  164.50   90.61 -171.61     0.002000       0.8555    2.7905    0.4114
 -167.20   90.65 -171.62     0.002000       0.8217    2.6537    0.4515
  168.16   90.35  179.14     0.002000       0.5443    3.5372    0.5068
 -139.76   90.29  178.91     0.002000       0.5583    3.5036    0.4991
 -145.35   88.97  174.55     0.002000       0.8204    3.1569    0.3772
 -146.37   87.66  172.89     0.002000       0.7396    2.2165    0.6042
 -169.28   88.90  177.97     0.002000       0.7003    3.4185    0.4075
  172.68   87.59  172.71     0.002000       0.7453    2.2804    0.5823
   90.42   91.02   -6.88     0.002000       0.8688    3.0277    0.3718
  113.28   90.78    0.10     0.002000       0.5281    3.5335    0.5230
   90.02   90.13   -8.76     0.002000       0.8459    2.7610    0.4208
  139.35   89.07  179.30     0.002000       0.6879    3.4877    0.4063
  136.47   92.19 -172.27     0.002000       0.8033    2.5371    0.4838
  101.79   90.31    0.77     0.002000       0.5440    3.4572    0.5194
 -133.92   89.03 -174.34     0.002000       0.8396    3.1166    0.3734
   94.52   89.94   -1.10     0.002000       0.5554    3.4874    0.5041
   83.22   94.93    1.60     0.002000       0.7697    2.0127    0.6405
  137.31   89.14  179.06     0.002000       0.6163    3.5101    0.4509
   87.11   93.89    4.05     0.002000       0.7500    2.0195    0.6552
   55.63   94.14   -5.18     0.002000       0.7537    2.1543    0.6103
  137.84   89.87 -176.00     0.002000       0.6994    3.3456    0.4175
   69.85   93.44   -4.36     0.002000       0.7406    2.0276    0.6608
   78.78   92.57   -7.18     0.002000       0.7490    2.2475    0.5881
  106.50   88.64   -7.87     0.002000       0.7461    2.2695    0.5846
  175.79   91.01 -177.08     0.002000       0.7442    3.3348    0.3932
   92.00   89.18   -6.79     0.002000       0.8496    3.0684    0.3752
  104.33   89.98    0.47     0.002000       0.5799    3.5599    0.4724
  165.67   84.57 -178.82     0.002000       0.7917    2.0948    0.5976
   56.95   89.76   -1.04     0.002000       0.5340    3.5222    0.5190
  117.36   90.39    4.18     0.002000       0.7170    3.3342    0.4086
   58.94   87.24    2.33     0.002000       0.7346    1.9392    0.6972
 -146.33   91.53  171.83     0.002000       0.8224    2.6392    0.4536
 -144.81   90.49 -176.63     0.002000       0.8132    3.2242    0.3722
 -165.71   93.50 -176.91     0.002000       0.8499    2.3477    0.4946
  125.42   85.10    3.74     0.002000       0.8044    2.2054    0.5579
   69.59   85.79   -2.65     0.002000       0.8406    2.2897    0.5133
 -163.77   92.06  173.47     0.002000       0.8341    2.5848    0.4566
 -167.56   91.11  177.76     0.002000       0.6593    3.4284    0.4318
   97.19   88.99    1.60     0.002000       0.6506    3.4870    0.4300
 -138.19   85.80  179.15     0.002000       0.7503    1.9621    0.6744
   83.89   89.51    2.39     0.002000       0.6364    3.4732    0.4416
   79.01   88.82    0.42     0.002000       0.7317    1.9040    0.7132
 -137.84   89.03  171.80     0.002000       0.8654    2.8379    0.3995
  118.64   89.47    8.71     0.002000       0.7931    2.5546    0.4868
   90.73   85.52    4.07     0.002000       0.8144    2.2726    0.5342
   98.06   90.55   -0.25     0.002000       0.5393    3.4443    0.5259
   50.69   89.97   -1.11     0.002000       0.5889    3.5177    0.4710
   69.09   89.97    1.12     0.002000       0.5483    3.4858    0.5109
  125.61   89.62    8.71     0.002000       0.8072    2.6040    0.4688
   78.07   95.38    1.47     0.002000       0.7946    2.0933    0.5959
   64.27   89.57   -1.06     0.002000       0.5485    3.5175    0.5059
  125.64   95.11   -0.74     0.002000       0.8211    2.1737    0.5545
  142.23   88.53 -176.56     0.002000       0.7324    1.9395    0.6992
  106.22   89.06   -8.64     0.002000       0.8257    2.6682    0.4467
   91.11   88.50    1.79     0.002000       0.7366    1.9131    0.7050
  154.47   88.94  175.75     0.002000       0.7826    3.2433    0.3846
 -151.74   87.53 -174.26     0.002000       0.7296    2.0887    0.6508
  172.81   90.84  174.61     0.002000       0.7817    3.1873    0.3924
  118.63   90.17    0.31     0.002000       0.5666    3.5516    0.4848
 -170.90   90.17 -179.64     0.002000       0.5602    3.5375    0.4923
   48.90   90.94   -2.72     0.002000       0.7495    3.3634    0.3869
  121.73   89.78    0.37     0.002000       0.5871    3.5473    0.4683
 -172.32   89.52  178.98     0.002000       0.5412    3.5021    0.5151
   91.78   88.70   -8.16     0.002000       0.8612    2.8022    0.4068
   72.50   89.47   -6.64     0.002000       0.7330    2.0961    0.6454
 -148.17   90.89  179.41     0.002000       0.6509    3.4951    0.4287
   94.51   89.92   -8.70     0.002000       0.7720    2.4702    0.5178
 -135.72   91.14  172.30     0.002000       0.8732    2.9226    0.3839
  150.20   89.90  178.85     0.002000       0.6085    3.5171    0.4558
   49.47   88.99   -4.10     0.002000       0.7470    3.2939    0.3969
  179.91   90.61  176.38     0.002000       0.6769    3.3636    0.4291
   94.27   89.60   -0.43     0.002000       0.5414    3.4378    0.5250
   94.38   90.88    2.03     0.002000       0.6574    3.4694    0.4278
 -168.68   87.43  174.18     0.002000       0.8348    2.5014    0.4719
   59.10   89.88   -1.15     0.002000       0.5923    3.5221    0.4676
  145.85   91.95 -175.10     0.002000       0.7289    2.0088    0.6779
 -175.49   94.27  174.89     0.002000       0.7604    2.1716    0.5999
   76.40   90.47   -0.09     0.002000       0.7025    3.5143    0.3946
 -171.39   88.90 -178.54     0.002000       0.6621    3.4506    0.4271
  141.60   89.89 -179.68     0.002000       0.5415    3.5550    0.5068
  134.25   92.49   -4.10     0.002000       0.7384    1.9748    0.6809
   58.31   89.76   -1.05     0.002000       0.5398    3.4900    0.5183
   97.34   89.64    8.78     0.002000       0.8087    2.6121    0.4664
 -164.20   86.34  174.70     0.002000       0.7398    2.0975    0.6390
 -139.22   91.07  171.92     0.002000       0.8691    2.8661    0.3937
  112.83   93.34    5.26     0.002000       0.7431    2.0682    0.6454
 -159.51   89.58  179.57     0.002000       0.6032    3.5235    0.4589
   83.85   85.41   -3.94     0.002000       0.7615    2.0674    0.6300
   98.41   90.74   -0.70     0.002000       0.5382    3.4854    0.5206
   78.77   93.85    5.40     0.002000       0.7516    2.1049    0.6267
   62.26   94.19    5.62     0.002000       0.7652    2.1847    0.5924
  101.48   89.50   -0.50     0.002000       0.5423    3.4440    0.5230
  142.39   91.18 -174.36     0.002000       0.8879    2.7362    0.4038
  142.18   89.50  179.84     0.002000       0.6494    3.5224    0.4262
   63.18   89.98    2.32     0.002000       0.7303    1.9134    0.7110
  131.05   92.57 -175.32     0.002000       0.7340    2.0091    0.6730
 -171.62   91.11 -175.87     0.002000       0.7424    3.2712    0.4023
   99.90   91.52    8.39     0.002000       0.8092    2.5937    0.4695
 -160.48   91.15 -171.79     0.002000       0.7750    2.4879    0.5119
  101.78   86.90   -1.20     0.002000       0.7453    1.9311    0.6902
 -176.79   90.49 -172.90     0.002000       0.7289    2.1840    0.6224
   68.32   89.67   -2.71     0.002000       0.6474    3.4535    0.4366
   71.33   86.06   -1.09     0.002000       0.7516    1.9539    0.6761
 -132.83   91.04  173.03     0.002000       0.7303    2.1463    0.6323
 -144.32   93.26  174.32     0.002000       0.7366    2.1159    0.6361
   80.54   90.90   -7.45     0.002000       0.8673    2.9821    0.3785
  108.06   90.70   -5.11     0.002000       0.8306    3.1475    0.3735
  127.28   89.90    0.28     0.002000       0.5658    3.5533    0.4852
   98.52   89.95   -0.84     0.002000       0.5446    3.4539    0.5193
  138.53   90.71  176.59     0.002000       0.7719    3.3058    0.3823
  130.14   88.03    5.28     0.002000       0.7348    2.0129    0.6711
  117.59   90.66    8.16     0.002000       0.8682    2.9000    0.3893
  175.87   87.73  174.04     0.002000       0.8416    2.5528    0.4583
   95.74   90.19   -0.51     0.002000       0.5427    3.4386    0.5236
   81.50   93.50    4.11     0.002000       0.7461    2.0030    0.6642
   84.06   88.33    0.32     0.002000       0.7356    1.9072    0.7082
   72.69   89.99    1.00     0.002000       0.6274    3.5391    0.4391
   98.97   90.30    1.07     0.002000       0.5670    3.5260    0.4881
   84.96   88.50   -8.03     0.002000       0.8467    2.7254    0.4259
 -133.23   90.58  179.32     0.002000       0.5377    3.5359    0.5133
 -153.46   94.79 -177.54     0.002000       0.8143    2.2070    0.5505
   86.64   94.51   -4.52     0.002000       0.7994    2.2502    0.5499
   63.66   88.40    6.57     0.002000       0.7322    2.1078    0.6425
 -177.63   89.62  179.91     0.002000       0.7007    3.4833    0.3993
 -162.94   88.90  172.58     0.002000       0.8700    2.9482    0.3818
   88.37   90.18    0.12     0.002000       0.5786    3.5588    0.4737
  157.15   93.63 -173.97     0.002000       0.7527    2.2190    0.5928
 -137.35   90.71 -171.55     0.002000       0.8336    2.7018    0.4367
 -154.13   85.77  176.21     0.002000       0.8212    2.2843    0.5268
   94.48   89.97   -1.03     0.002000       0.6732    3.5342    0.4096
  171.44   90.98 -176.15     0.002000       0.7141    3.3100    0.4133
  131.62   89.30   -0.49     0.002000       0.6053    3.5278    0.4568
  151.44   94.69 -176.47     0.002000       0.7581    2.0842    0.6275
   85.90   93.37    6.90     0.002000       0.7644    2.2794    0.5678
   95.51   89.91   -1.26     0.002000       0.6159    3.5309    0.4485
   95.97   89.86   -0.20     0.002000       0.5424    3.4288    0.5253
   83.50   85.01    3.78     0.002000       0.7770    2.1309    0.5985
  128.20   85.26   -1.17     0.002000       0.7601    1.9910    0.6559
  125.54   85.37    1.13     0.002000       0.7611    1.9809    0.6584
 -170.20   89.13  176.79     0.002000       0.6737    3.3807    0.4288
   94.79   90.92    8.65     0.002000       0.8056    2.5960    0.4712
   96.10   90.64    0.38     0.002000       0.6281    3.5328    0.4394
 -161.56   91.10  173.49     0.002000       0.8493    3.0572    0.3767
  145.64   94.80 -177.54     0.002000       0.8138    2.2119    0.5496
  131.78   89.12   -6.97     0.002000       0.8521    3.0435    0.3773
  146.32   89.56 -179.00     0.002000       0.5453    3.5170    0.5090
  166.38   89.51 -179.29     0.002000       0.7261    3.4526    0.3887
  152.11   92.62 -172.59     0.002000       0.7793    2.4306    0.5214
   55.58   90.59    5.51     0.002000       0.8748    2.9870    0.3741
   85.95   87.14   -7.20     0.002000       0.7547    2.2623    0.5797
  106.65   92.77    2.29     0.002000       0.7421    1.9375    0.6908
  114.97   88.56   -8.22     0.002000       0.7571    2.3645    0.5523
   56.68   93.70    1.24     0.002000       0.7473    1.9475    0.6823
   58.85   89.94    8.75     0.002000       0.8161    2.6403    0.4571
  136.25   89.13  179.36     0.002000       0.5379    3.5164    0.5160
   97.39   89.91    0.66     0.002000       0.5429    3.4430    0.5227
  157.81   90.93  172.78     0.002000       0.7325    2.1809    0.6202
  110.15   89.01    8.64     0.002000       0.7946    2.5566    0.4854
   47.85   90.75   -1.04     0.002000       0.6110    3.5076    0.4552
   96.69   89.96    1.11     0.002000       0.6650    3.5372    0.4143
   74.05   89.62   -0.26     0.002000       0.7015    3.5168    0.3948
  159.87   94.82  179.54     0.002000       0.8274    2.2022    0.5429
  111.50   91.26   -7.83     0.002000       0.8640    2.7938    0.4066
  163.64   94.81 -179.40     0.002000       0.7604    2.0008    0.6523
   73.56   91.45   -7.92     0.002000       0.8542    2.7544    0.4175
   98.35   88.92   -8.60     0.002000       0.8165    2.6345    0.4578
 -145.24   89.37  179.53     0.002000       0.6491    3.5080    0.4282
   64.32   94.17    1.84     0.002000       0.8483    2.2878    0.5089
  108.47   90.30   -1.11     0.002000       0.5510    3.4983    0.5065
   93.66   91.60   -8.39     0.002000       0.7922    2.5348    0.4911
   94.26   91.94    3.62     0.002000       0.7385    1.9476    0.6905
  156.99   90.26 -173.39     0.002000       0.7271    2.1104    0.6462
   55.90   94.75    2.61     0.002000       0.8223    2.2268    0.5401
  126.09   90.64    8.62     0.002000       0.7829    2.5139    0.5014
  178.29   89.63 -171.52     0.002000       0.8475    2.7559    0.4208
   53.34   88.78   -8.31     0.002000       0.8298    2.6793    0.4425
  112.40   89.20    3.17     0.002000       0.6881    3.4005    0.4172
  165.62   91.48 -171.89     0.002000       0.7950    2.5477    0.4868
   85.21   93.22   -0.19     0.002000       0.7466    1.9312    0.6889
 -136.00   84.81 -178.36     0.002000       0.7710    2.0545    0.6260
   97.55   89.76   -0.85     0.002000       0.5451    3.4572    0.5183
  141.29   91.20 -177.49     0.002000       0.7124    3.3966    0.4032
  159.48   89.92  178.84     0.002000       0.5860    3.5112    0.4743
   57.01   90.01   -0.76     0.002000       0.6254    3.5397    0.4404
  128.94   89.70    1.09     0.002000       0.5541    3.5044    0.5028
  163.57   88.45  171.79     0.002000       0.8163    2.6166    0.4611
 -178.41   94.28 -175.91     0.002000       0.8057    2.2673    0.5413
 -179.17   90.95  178.41     0.002000       0.7024    3.4381    0.4038
   85.64   86.19    1.29     0.002000       0.7500    1.9505    0.6789
 -170.56   85.89 -174.62     0.002000       0.7541    2.1794    0.6027
  157.18   89.84 -179.58     0.002000       0.5398    3.5513    0.5089
   81.72   90.03   -0.23     0.002000       0.5679    3.5611    0.4823
 -170.72   91.02  171.82     0.002000       0.8638    2.8283    0.4017
 -143.81   91.12  177.37     0.002000       0.7294    3.3839    0.3952
  168.31   89.94 -179.11     0.002000       0.6619    3.5061    0.4201
  160.21   90.83 -179.40     0.002000       0.6321    3.4944    0.4416
  171.18   94.10  178.79     0.002000       0.7475    1.9642    0.6762
  160.16   86.50 -173.54     0.002000       0.7863    2.3526    0.5342
   99.58   91.01   -3.15     0.002000       0.7461    3.3711    0.3878
 -143.16   89.80 -171.60     0.002000       0.8591    2.8401    0.4022
  102.50   89.50    0.95     0.002000       0.5395    3.4740    0.5211
   91.26   90.00    0.90     0.002000       0.5447    3.4591    0.5184
   93.40   89.17    2.10     0.002000       0.7442    3.4159    0.3834
 -155.61   84.93  179.17     0.002000       0.7654    2.0136    0.6438
   89.46   89.44    5.90     0.002000       0.8066    3.1735    0.3819
  155.04   89.90  174.54     0.002000       0.7624    3.2190    0.3984
   82.95   88.89    2.79     0.002000       0.6874    3.4161    0.4156
  163.08   90.32  171.37     0.002000       0.8177    2.6395    0.4563
 -161.42   90.15  179.10     0.002000       0.5910    3.5256    0.4682
 -170.22   85.19 -177.30     0.002000       0.7558    2.0394    0.6436
 -143.56   93.96 -175.34     0.002000       0.7466    2.0734    0.6407
   93.36   88.92   -0.04     0.002000       0.5388    3.4813    0.5206
   96.98   89.13    8.55     0.002000       0.8536    2.7775    0.4143
   57.15   89.66   -0.32     0.002000       0.6988    3.5112    0.3971
  120.17   90.03   -3.88     0.002000       0.6948    3.3732    0.4167
  137.53   91.87   -7.99     0.002000       0.7574    2.3542    0.5545
   96.13   89.98   -0.31     0.002000       0.5422    3.4304    0.5253
 -161.66   90.51  179.15     0.002000       0.5456    3.5271    0.5072
  142.31   90.17  179.52     0.002000       0.5779    3.5457    0.4760
   82.89   90.22   -1.09     0.002000       0.5628    3.5046    0.4949
 -173.59   92.73  174.10     0.002000       0.7322    2.1061    0.6430
   80.73   89.22    8.68     0.002000       0.8046    2.5963    0.4717
 -145.56   89.62  178.93     0.002000       0.5483    3.5231    0.5053
  129.68   90.17   -1.33     0.002000       0.5949    3.5265    0.4650
   46.93   89.12    1.22     0.002000       0.6143    3.5009    0.4537
   94.63   89.46   -1.99     0.002000       0.6264    3.4983    0.4453
   64.04   89.55    0.96     0.002000       0.5446    3.4778    0.5156
  108.05   89.77    1.14     0.002000       0.5613    3.5037    0.4964
  112.83   90.98   -6.74     0.002000       0.8815    2.8179    0.3946
   86.55   91.74   -8.14     0.002000       0.7619    2.3863    0.5436
 -152.61   89.97  178.85     0.002000       0.6353    3.5170    0.4365
   70.12   89.51    0.96     0.002000       0.5466    3.4805    0.5133
   75.10   90.69    8.38     0.002000       0.7533    2.3637    0.5553
   93.07   89.15   -8.60     0.002000       0.8448    2.7461    0.4237
  178.52   85.90  175.67     0.002000       0.7420    2.0607    0.6488
   57.82   87.56    3.68     0.002000       0.7318    1.9634    0.6911
 -163.44   90.17 -179.07     0.002000       0.5941    3.5188    0.4667
  171.04   89.92 -179.00     0.002000       0.5761    3.5089    0.4828
 -146.60   90.07 -178.95     0.002000       0.5815    3.5129    0.4777
 -168.50   90.90 -179.14     0.002000       0.6731    3.4711    0.4174
   46.87   90.46    0.01     0.002000       0.7024    3.4992    0.3964
  115.31   85.07    0.83     0.002000       0.7680    1.9976    0.6469
   58.42   91.78   -7.85     0.002000       0.7531    2.3429    0.5605
 -159.90   90.65 -174.53     0.002000       0.8771    2.9471    0.3784
   48.64   93.44    6.56     0.002000       0.7535    2.2185    0.5924
   93.10   87.19   -4.87     0.002000       0.7409    2.0162    0.6644
  117.31   95.33   -1.60     0.002000       0.7969    2.1008    0.5919
  170.53   90.87 -178.78     0.002000       0.6240    3.4794    0.4494
   93.40   89.64    1.15     0.002000       0.5706    3.5197    0.4859
   53.85   92.57   -7.45     0.002000       0.7597    2.3494    0.5540
   57.77   94.07   -5.09     0.002000       0.7994    2.3136    0.5344
  131.26   88.94    6.33     0.002000       0.8565    3.0690    0.3719
   87.00   87.56    4.50     0.002000       0.7372    1.9865    0.6779
   77.20   88.86   -1.91     0.002000       0.6916    3.4584    0.4077
  168.19   90.00  178.92     0.002000       0.6371    3.5107    0.4360
 -143.51   90.56 -178.80     0.002000       0.7328    3.4443    0.3861
   84.76   89.60    8.75     0.002000       0.8472    2.7586    0.4205
  136.09   84.89  178.06     0.002000       0.7675    2.0391    0.6338
  106.77   87.50    7.76     0.002000       0.7606    2.3405    0.5555
   96.42   89.12   -7.34     0.002000       0.7381    2.1714    0.6183
  108.55   85.65   -5.43     0.002000       0.7848    2.2529    0.5596
   96.55   88.40   -0.81     0.002000       0.7370    1.9079    0.7066
   69.64   84.56    0.92     0.002000       0.7924    2.0899    0.5985
  176.39   86.12  174.74     0.002000       0.8030    2.3333    0.5273
