MORPHOLOGY AT STRAIN =    1.0000  FOR PHASE  1
   0.996   1.701   0.597  <-- AXES OF PHASE ELLIPSOID
 -155.20   89.56   90.15  <-- EULER ANGLES OF PHASE ELLIPSOID (deg)
   1.010   1.972   0.572  <-- AVERAGE OF GRAIN AXES FOR PHASE
   0.085   0.357   0.336  <-- STANDARD DEV OF AVG GRAIN AXES FOR PHASE
B       500
   10.05   46.78  121.96     0.001000       0.9530    1.8147    0.5837
 -152.02  113.56  103.17     0.001000       1.0022    2.6611    0.3728
 -153.30   93.19  110.42     0.001000       1.0014    2.8980    0.3420
 -156.81   88.91   55.99     0.001000       1.2293    1.3044    0.6304
 -157.94   90.76  116.15     0.001000       1.1617    1.4087    0.6171
 -153.72   86.26   86.88     0.001000       1.0001    3.5314    0.2788
 -148.94   90.49   86.39     0.001000       1.1278    1.2385    0.7271
 -153.06   77.29   81.23     0.001000       1.0009    3.1937    0.3092
 -162.69  105.44   42.96     0.001000       1.0955    1.6485    0.5576
 -156.44   63.10  106.49     0.001000       1.0036    2.6448    0.3762
 -154.21   88.82  104.87     0.001000       1.0007    3.1668    0.3121
 -153.95   95.17   90.69     0.001000       1.0001    3.5225    0.2795
 -156.78   48.15   72.93     0.001000       0.8989    1.3813    0.8144
 -147.17  119.79  126.34     0.001000       1.0427    1.2976    0.7491
   29.21   39.54   77.65     0.001000       0.8786    1.7808    0.6442
 -148.70  113.34   86.14     0.001000       0.9076    1.4641    0.7642
 -153.87   84.43   96.83     0.001000       1.0004    3.4923    0.2822
 -158.02   40.43  -76.77     0.001000       0.9827    1.9244    0.5330
 -156.80   37.36  -82.34     0.001000       0.9461    1.9488    0.5466
 -155.22  109.64   81.88     0.001000       1.0019    3.0660    0.3226
 -148.35   46.00 -113.28     0.001000       0.9432    1.8001    0.5927
 -150.56  106.33  108.37     0.001000       1.0037    2.8004    0.3540
 -154.65   97.33   84.14     0.001000       1.0004    3.4198    0.2880
 -152.53   98.21  109.76     0.001000       1.0020    2.8559    0.3470
 -170.28   90.07   91.01     0.001000       1.0371    1.1876    0.8232
 -141.19   96.79   84.05     0.001000       0.9838    1.1527    0.8996
 -175.01   93.86   94.75     0.001000       1.0048    1.0924    0.9253
 -153.02   89.50 -135.10     0.001000       1.0732    1.8899    0.4959
 -146.39   82.97   84.95     0.001000       0.9606    1.4264    0.7412
 -159.04   87.44  133.80     0.001000       1.0212    2.0711    0.4733
  179.91   95.77  100.65     0.001000       1.0109    1.0783    0.9328
 -149.23   75.07   58.19     0.001000       1.0234    2.2157    0.4419
 -152.57   83.15 -136.86     0.001000       1.0679    1.7528    0.5381
 -148.16   79.82   82.68     0.001000       0.8750    1.4395    0.8067
 -156.27   81.37  123.57     0.001000       1.0137    2.3235    0.4245
 -145.55   58.76   50.39     0.001000       1.0339    1.5953    0.6125
 -150.62  105.70  112.98     0.001000       1.0067    2.5463    0.3890
 -151.27  134.75   94.03     0.001000       0.9708    2.2831    0.4524
 -166.00   64.39   93.30     0.001000       0.8962    1.4035    0.8038
 -150.59   72.19   80.19     0.001000       1.0376    1.1734    0.8340
 -157.01   51.50   88.73     0.001000       0.9931    2.4788    0.4044
 -156.29   77.48   90.32     0.001000       1.0023    1.0858    0.9347
 -153.17   92.39  131.30     0.001000       1.1912    1.4134    0.6006
 -159.51  112.65   59.50     0.001000       1.0073    2.3239    0.4277
 -154.37   92.72  140.14     0.001000       1.1142    1.6662    0.5428
 -147.95   84.04   98.64     0.001000       1.0255    1.1562    0.8576
 -158.27  124.11   75.33     0.001000       1.0038    2.4651    0.4037
 -163.24   94.24  102.54     0.001000       1.0909    1.3309    0.6962
 -156.15   97.21   52.17     0.001000       1.0225    2.2137    0.4423
 -156.60  107.54   66.44     0.001000       1.0032    2.7020    0.3677
 -155.41  102.34   77.51     0.001000       1.0013    3.1639    0.3122
 -177.53   89.72   92.62     0.001000       1.0140    1.1760    0.8495
 -151.76  130.33  118.55     0.001000       0.9717    1.3417    0.7757
 -153.30   84.68   75.30     0.001000       1.0008    3.1382    0.3150
 -155.48   40.49  -88.55     0.001000       0.9350    2.0646    0.5204
 -158.08   34.66  -77.97     0.001000       0.9465    1.7807    0.5996
   27.86   32.13   90.95     0.001000       0.8791    1.8484    0.6215
 -150.78   83.27   57.30     0.001000       1.0151    2.3898    0.4126
 -154.42   92.21   87.13     0.001000       1.0001    3.5196    0.2795
 -172.30  106.38   85.73     0.001000       0.9187    1.2726    0.8660
 -154.21   90.48   97.37     0.001000       1.0002    3.4261    0.2876
 -153.34   90.44  139.05     0.001000       1.2246    1.3661    0.6042
   24.51   38.77   92.39     0.001000       0.8478    1.7380    0.6856
 -155.74   87.20   81.44     0.001000       1.0002    3.4292    0.2861
 -171.12   99.65   98.33     0.001000       1.0997    1.1588    0.7952
 -153.53   90.22  137.53     0.001000       1.1500    1.6290    0.5383
 -151.98  100.12  110.98     0.001000       1.0030    2.7627    0.3589
 -150.18  130.87  114.19     0.001000       0.9697    1.8043    0.5743
 -150.85  115.32  101.46     0.001000       1.0026    2.7328    0.3634
   25.80   40.85   76.62     0.001000       0.8849    1.5584    0.7319
 -150.21   80.72   87.79     0.001000       1.0221    1.1810    0.8416
 -151.49   93.18  123.62     0.001000       1.1697    1.3185    0.6574
 -154.13   80.55   98.08     0.001000       1.0008    3.3710    0.2928
 -161.01  105.89   85.06     0.001000       0.8514    1.5145    0.7842
 -154.37  102.72   94.52     0.001000       1.0007    3.3338    0.2953
 -154.50   85.56   96.61     0.001000       1.0003    3.4380    0.2865
 -153.31   90.71  115.93     0.001000       1.0028    2.6696    0.3721
 -153.34   90.10  122.63     0.001000       1.0097    2.3813    0.4158
 -161.63   80.60  132.33     0.001000       1.1659    1.4850    0.5820
 -151.45   99.11  113.10     0.001000       1.0040    2.7008    0.3674
 -151.97   92.36  135.97     0.001000       1.1356    1.6268    0.5463
 -153.42   77.27   89.72     0.001000       1.0009    3.4131    0.2889
 -154.81   79.42  105.64     0.001000       1.0014    3.0754    0.3220
 -174.00   75.33  150.29     0.001000       1.0655    1.2827    0.7407
 -154.28   87.47   88.92     0.001000       1.0000    3.5189    0.2797
 -154.57   89.67  131.87     0.001000       1.1833    1.4982    0.5694
 -151.81   92.44  107.37     0.001000       1.2020    1.2607    0.6689
 -164.11  103.09   87.60     0.001000       0.8730    1.4294    0.8101
 -147.05  110.44  134.53     0.001000       1.0674    1.4936    0.6349
 -145.02   81.33   66.19     0.001000       1.0970    1.1831    0.7842
 -153.93   94.58  111.91     0.001000       1.0018    2.7736    0.3572
 -155.49   76.22  101.45     0.001000       1.0014    3.1951    0.3091
 -143.95   83.37   86.08     0.001000       0.9517    1.3829    0.7725
 -148.50  118.79  112.92     0.001000       1.0040    2.2136    0.4505
 -174.54   91.84   97.34     0.001000       1.0325    1.1664    0.8418
 -151.43   78.96   70.18     0.001000       1.0026    2.8232    0.3513
 -159.86  110.63   65.38     0.001000       1.0027    2.5085    0.3961
 -154.05   53.31   93.60     0.001000       0.8578    1.6023    0.7368
   19.86   34.41  108.54     0.001000       0.9319    1.6061    0.6771
 -149.39   95.09  103.33     0.001000       1.1368    1.2155    0.7355
 -150.57   32.08  -92.35     0.001000       0.8198    1.7119    0.7205
 -150.65   90.37  103.10     0.001000       1.1756    1.2700    0.6792
 -160.17   77.39  133.81     0.001000       1.0774    1.8145    0.5142
 -154.05   91.83   57.14     0.001000       1.0074    2.4260    0.4087
 -170.25   90.23   91.92     0.001000       0.9714    1.1703    0.8921
 -177.47  100.79   99.03     0.001000       1.0309    1.1357    0.8667
 -152.72   74.13   85.49     0.001000       1.0013    3.2721    0.3018
 -157.49   99.45   49.15     0.001000       1.0391    2.0734    0.4654
 -149.99  102.11  136.19     0.001000       1.0861    1.5879    0.5860
 -154.75   89.58   62.62     0.001000       1.1573    1.3254    0.6602
 -151.74   83.80   65.54     0.001000       1.0036    2.7864    0.3559
   24.74   38.27   87.70     0.001000       0.8908    1.9372    0.5829
 -162.02   39.62  -68.56     0.001000       0.9559    1.7298    0.6115
   31.56   44.74   65.39     0.001000       0.9257    1.5714    0.6939
 -173.92  125.08   46.19     0.001000       1.0285    1.1672    0.8466
 -160.87  106.69   50.55     0.001000       1.0205    2.0518    0.4790
 -156.79   31.43  -84.41     0.001000       0.8732    1.8105    0.6388
 -157.44  109.60   67.62     0.001000       1.0030    2.7322    0.3633
 -143.64   52.54   49.16     0.001000       0.9860    1.4380    0.7140
 -150.71  115.81  105.27     0.001000       1.0028    2.5633    0.3877
 -153.51   79.40   83.17     0.001000       1.0007    3.3017    0.2987
 -149.52   93.54   93.20     0.001000       1.0975    1.2445    0.7437
 -153.37   47.35   85.75     0.001000       0.9722    2.3676    0.4343
   19.25   38.78  102.22     0.001000       0.9554    1.9854    0.5305
 -152.20   77.74   73.47     0.001000       1.0017    2.9162    0.3396
 -153.04  120.91   89.89     0.001000       1.0032    2.7933    0.3553
 -149.21   87.47   89.50     0.001000       0.9661    1.5003    0.6996
 -152.29   74.51   56.89     0.001000       1.0236    2.2328    0.4372
 -148.13  112.38  129.50     0.001000       1.0369    1.7595    0.5525
 -153.53   89.88  105.20     0.001000       1.0008    3.1878    0.3102
 -147.99   88.34   61.99     0.001000       1.1219    1.2454    0.7275
 -164.10   88.35   82.60     0.001000       0.8691    1.4124    0.8240
 -173.28   84.03   92.48     0.001000       0.9414    1.2108    0.8891
 -159.09  123.35   70.71     0.001000       1.0041    2.3613    0.4220
 -149.36   66.84   54.77     0.001000       1.0214    1.9516    0.5038
 -160.41   41.61  -75.04     0.001000       0.8649    1.6825    0.6955
   12.19   44.86  116.60     0.001000       0.9281    1.8324    0.5934
 -152.34   88.44  100.66     0.001000       1.1998    1.3441    0.6273
 -143.16   84.33   78.45     0.001000       0.9867    1.2931    0.7980
 -149.69  129.81  116.54     0.001000       0.9770    1.7465    0.5894
 -155.28   77.61  106.98     0.001000       1.0017    3.0447    0.3252
 -157.67  111.88   66.24     0.001000       1.0037    2.5713    0.3868
 -151.74   96.24  137.32     0.001000       1.1451    1.4670    0.6020
 -153.45   71.82   89.79     0.001000       1.0015    3.1752    0.3114
 -145.69   74.25   62.81     0.001000       1.0458    1.2257    0.7920
 -157.30   91.47   52.57     0.001000       1.2002    1.4564    0.5770
 -158.16   79.41  133.87     0.001000       1.0909    1.8731    0.4919
 -145.33   79.92   81.08     0.001000       0.9534    1.3631    0.7824
 -150.88   91.61   90.74     0.001000       1.0099    1.1654    0.8634
 -148.41  103.01   93.32     0.001000       0.8514    1.4410    0.8278
 -147.77   69.99   52.78     0.001000       1.0453    1.9234    0.5005
 -170.85   75.25  147.44     0.001000       1.0737    1.3526    0.6964
 -150.06   37.34  -97.25     0.001000       0.8403    1.8479    0.6496
 -163.04  130.36   88.01     0.001000       0.8647    1.5731    0.7418
 -147.71   37.13  -95.41     0.001000       0.8302    1.5008    0.8140
 -155.35   99.73   69.43     0.001000       1.0017    2.9023    0.3416
 -151.17   56.89   84.27     0.001000       1.0023    2.6013    0.3828
 -151.63  104.00  103.90     0.001000       1.0018    3.0435    0.3253
 -156.47   92.00   47.87     0.001000       1.2453    1.3009    0.6240
 -152.21   92.82   80.36     0.001000       1.1889    1.2923    0.6593
 -146.72  121.40  126.18     0.001000       1.0188    1.7216    0.5751
 -160.30   68.94  121.39     0.001000       1.0077    2.3286    0.4264
 -156.19   64.11   84.69     0.001000       0.8278    1.6026    0.7614
 -151.10   55.13   70.50     0.001000       0.9963    2.2367    0.4484
 -151.58   32.96  -87.04     0.001000       0.8784    1.7143    0.6721
   28.27   42.78   74.06     0.001000       0.8985    1.6899    0.6634
 -154.49   93.37   68.06     0.001000       1.0015    2.8965    0.3421
 -153.83   83.05   94.32     0.001000       1.0004    3.5220    0.2797
 -142.08   84.25   79.60     0.001000       0.9924    1.2304    0.8346
 -171.30   55.96  133.23     0.001000       1.0300    1.5335    0.6399
 -157.94   88.22  117.65     0.001000       1.1507    1.4121    0.6217
 -154.65   85.25  104.80     0.001000       1.0008    3.1674    0.3120
 -152.29   97.55  105.63     0.001000       1.0012    3.1088    0.3184
 -155.06   91.48   89.33     0.001000       0.9046    1.6060    0.6958
 -154.05   54.49   94.58     0.001000       1.0035    2.6094    0.3814
 -157.79   92.11  110.58     0.001000       1.1916    1.3118    0.6468
 -154.39   91.75   45.03     0.001000       1.1770    1.4982    0.5727
 -147.47   66.38   50.14     0.001000       1.0388    1.7664    0.5495
 -159.79   54.63   91.24     0.001000       0.8572    1.6205    0.7268
 -170.63   51.70  129.26     0.001000       0.9739    1.3908    0.7489
 -155.88   88.81   53.28     0.001000       1.0073    2.3609    0.4194
 -143.09   98.84  107.03     0.001000       1.0022    1.0974    0.9265
 -152.14   44.79 -108.60     0.001000       0.9313    1.7382    0.6213
   21.44   37.89   96.80     0.001000       0.9182    2.1133    0.5179
 -174.60  116.96   38.75     0.001000       1.0161    1.5291    0.6501
 -159.12   72.80  124.39     0.001000       1.0157    2.1792    0.4527
 -154.20   92.42  145.00     0.001000       1.1554    1.4700    0.5949
 -165.68  128.53  106.27     0.001000       0.9398    1.1969    0.9017
 -149.12   85.70   84.49     0.001000       1.0864    1.2144    0.7703
 -160.00   86.99  112.79     0.001000       1.1398    1.3221    0.6713
 -146.01  129.81  125.33     0.001000       0.9853    1.5307    0.6701
 -156.55   82.86  131.38     0.001000       1.0613    1.9908    0.4750
 -158.97   65.25  115.71     0.001000       1.0052    2.3439    0.4247
 -142.95   86.67   84.52     0.001000       0.9907    1.3226    0.7766
 -167.97   92.93   87.31     0.001000       1.0182    1.3190    0.7526
   23.30   38.50   94.09     0.001000       0.8262    1.7979    0.6799
 -153.95   91.72   74.99     0.001000       1.0008    3.1976    0.3091
 -153.67   97.12   94.85     0.001000       1.0003    3.4324    0.2871
 -153.44  114.05   93.52     0.001000       1.0021    2.9308    0.3377
 -154.16  130.86   88.93     0.001000       0.9978    2.3627    0.4243
 -155.87  108.32   78.72     0.001000       1.0019    3.0499    0.3242
 -147.05  110.92  127.12     0.001000       1.0517    1.7721    0.5407
 -144.39  106.55  110.67     0.001000       1.0683    1.1349    0.8392
 -145.49   97.83   99.18     0.001000       0.9733    1.3520    0.7727
 -156.45   91.90  119.19     0.001000       1.1681    1.4026    0.6167
 -170.04   75.65   80.05     0.001000       0.9163    1.2512    0.8840
 -155.19   98.60   66.22     0.001000       1.0022    2.7881    0.3560
 -151.65   33.99  -88.39     0.001000       0.8942    1.8906    0.5973
 -154.04   73.39   91.04     0.001000       1.0012    3.2053    0.3082
 -161.85   55.17  115.90     0.001000       1.0048    2.0717    0.4826
 -164.76  128.82   66.29     0.001000       0.9974    2.0951    0.4798
 -151.21  107.86  107.44     0.001000       1.0030    2.7097    0.3661
 -154.84   81.11  107.19     0.001000       1.0014    3.0270    0.3272
 -144.71   95.57   78.57     0.001000       1.0099    1.1235    0.8975
 -154.07   92.68   94.62     0.001000       1.0001    3.5459    0.2774
 -142.38   96.41   98.60     0.001000       0.9934    1.2319    0.8327
 -146.79  105.24  122.84     0.001000       1.1004    1.2100    0.7631
 -152.62   80.60   74.38     0.001000       1.0013    3.0338    0.3261
 -146.97   83.98   66.10     0.001000       1.1221    1.1978    0.7564
 -143.25  115.15  131.62     0.001000       1.0492    1.2919    0.7490
 -155.04  110.80   85.48     0.001000       1.0019    3.1487    0.3136
 -147.64   93.15   81.31     0.001000       1.0804    1.1861    0.7938
 -147.03   95.12  119.31     0.001000       1.1086    1.2658    0.7236
 -156.56   76.94  120.59     0.001000       1.0091    2.4380    0.4064
 -167.34   96.17   75.02     0.001000       1.1124    1.2044    0.7559
 -158.43   88.46  101.34     0.001000       1.1628    1.4480    0.5992
 -156.51   84.93  133.38     0.001000       1.1706    1.6111    0.5341
 -153.63   87.74   50.19     0.001000       1.1996    1.3906    0.6061
 -152.26  116.25   97.16     0.001000       1.0024    2.7736    0.3576
 -154.85   92.92   90.24     0.001000       0.9983    1.1449    0.8889
 -142.85   86.43   76.08     0.001000       0.9941    1.1828    0.8662
 -152.78   86.87   55.31     0.001000       1.1920    1.3292    0.6391
 -153.86   89.50   81.05     0.001000       1.0003    3.4124    0.2889
 -161.71   74.20  134.60     0.001000       1.0898    1.7153    0.5386
 -152.30   83.21   67.38     0.001000       1.0024    2.7747    0.3575
 -147.46   82.30   97.92     0.001000       1.0396    1.1522    0.8492
 -154.85   93.35   54.71     0.001000       1.1731    1.3763    0.6266
 -155.09   90.13   86.70     0.001000       0.8399    1.6202    0.7428
 -158.42   64.22   89.45     0.001000       0.8384    1.5889    0.7582
 -173.42  109.75   84.81     0.001000       0.9224    1.2635    0.8689
 -143.29   86.13   74.15     0.001000       1.0407    1.1496    0.8515
 -147.79   54.55   72.85     0.001000       0.9941    2.2802    0.4420
 -151.54   98.14  115.38     0.001000       1.0059    2.6900    0.3682
 -154.81   80.98  101.77     0.001000       1.0009    3.2153    0.3073
 -155.06   91.74   69.18     0.001000       1.2057    1.4188    0.5904
 -175.46   52.69  137.21     0.001000       1.0070    1.3579    0.7414
 -161.49   82.29   86.25     0.001000       0.8722    1.4653    0.7907
 -156.80  117.72   73.64     0.001000       1.0036    2.6805    0.3708
 -149.09   37.86  -95.83     0.001000       0.8941    2.0049    0.5621
 -148.63   59.89   99.79     0.001000       0.9004    1.2926    0.8752
 -152.80   87.99   95.19     0.001000       0.8558    1.5985    0.7401
 -175.89   78.47   97.26     0.001000       1.0645    1.1730    0.8108
   22.39   34.43  101.21     0.001000       0.9507    1.8351    0.5787
 -159.39  100.90 -136.62     0.001000       1.1246    1.6952    0.5280
 -150.37   77.33   52.91     0.001000       1.0401    2.1340    0.4518
 -154.04   85.53  116.29     0.001000       1.0034    2.7409    0.3621
 -155.96   59.34   99.96     0.001000       1.0033    2.6121    0.3806
 -149.65  104.39   98.44     0.001000       1.0473    1.1838    0.8190
 -149.64  106.36  119.89     0.001000       1.0238    2.3202    0.4212
  179.90  102.13   60.45     0.001000       1.0411    1.1201    0.8700
   24.61   40.85   84.12     0.001000       0.8539    1.7557    0.6720
 -146.08   99.94   94.95     0.001000       0.9494    1.4292    0.7485
 -154.76   84.59  117.37     0.001000       1.0037    2.6103    0.3804
 -154.67   83.50  121.08     0.001000       1.0092    2.4846    0.3985
 -152.74   66.70   87.95     0.001000       1.0021    2.9951    0.3308
 -154.34   87.88   52.37     0.001000       1.0166    2.1778    0.4519
 -153.83   89.31  110.96     0.001000       1.0014    2.8984    0.3421
 -154.07   75.58   93.65     0.001000       1.0011    3.2861    0.3005
 -148.39  102.30   80.64     0.001000       1.0003    1.0922    0.9323
  178.21   74.28  147.43     0.001000       1.0447    1.1351    0.8564
 -171.55   80.13  150.26     0.001000       1.0773    1.3387    0.7010
 -149.89   73.11   68.09     0.001000       1.0050    2.5996    0.3818
 -157.69   42.22  -90.69     0.001000       0.8568    1.8577    0.6323
 -145.39   77.37   90.46     0.001000       0.9373    1.3986    0.7753
 -157.82   40.52  -78.28     0.001000       0.9705    2.0455    0.5071
 -153.25   99.60  129.75     0.001000       1.0361    2.0768    0.4657
 -150.11   49.35   83.28     0.001000       0.9870    2.3410    0.4336
