MORPHOLOGY AT STRAIN =    1.0000  FOR PHASE  2
   1.178   2.966   0.283  <-- AXES OF PHASE ELLIPSOID
 -154.30   90.21   90.00  <-- EULER ANGLES OF PHASE ELLIPSOID (deg)
   1.210   3.056   0.278  <-- AVERAGE OF GRAIN AXES FOR PHASE
   0.173   0.139   0.211  <-- STANDARD DEV OF AVG GRAIN AXES FOR PHASE
B       500
 -158.11   99.73   86.22     0.001000       1.5154    2.6343    0.2452
 -153.58  104.66   98.16     0.001000       1.1143    3.4659    0.2537
 -154.85   91.18  104.67     0.001000       1.3362    3.4601    0.2110
 -154.52   90.48   89.01     0.001000       1.3926    2.9225    0.2414
 -154.22   91.39   94.37     0.001000       1.3425    3.0056    0.2435
 -154.57   86.69   87.45     0.001000       1.0145    4.1744    0.2304
 -152.47   88.24   88.12     0.001000       1.2836    2.7586    0.2785
 -154.02   79.93   83.67     0.001000       1.0901    3.8625    0.2322
 -154.61   89.19   84.88     0.001000       1.3716    3.0764    0.2323
 -156.14   78.98  107.21     0.001000       1.4599    3.0640    0.2188
 -154.92   89.36  102.97     0.001000       1.1558    3.7743    0.2240
 -154.72   94.76   90.39     0.001000       1.0119    4.1767    0.2308
 -155.15   89.45   84.46     0.001000       1.0827    2.8642    0.3175
 -154.33   94.82   94.93     0.001000       1.2404    2.6888    0.2953
 -154.65  100.27   91.47     0.001000       0.7155    3.2983    0.4190
 -159.43  105.64   79.69     0.001000       1.1344    2.1252    0.4136
 -154.76   85.46   96.76     0.001000       1.0073    4.1211    0.2353
 -158.25   70.06  106.79     0.001000       1.1923    2.7124    0.3059
 -151.26   89.15  102.40     0.001000       0.7583    2.9182    0.4514
 -155.86  107.19   81.68     0.001000       1.0085    3.7961    0.2563
 -154.38   84.62   82.35     0.001000       1.0579    3.0072    0.3090
 -153.24  100.44  101.12     0.001000       1.2029    3.4319    0.2371
 -155.15   96.53   84.38     0.001000       1.0041    4.1048    0.2369
 -154.46   94.04  103.13     0.001000       1.2711    3.4752    0.2210
 -153.80   90.50   90.30     0.001000       1.3583    2.9838    0.2427
 -157.92   93.35   87.81     0.001000       1.2365    2.8305    0.2805
 -154.73   91.44   92.16     0.001000       1.3445    3.0715    0.2374
 -154.04   88.55   83.69     0.001000       1.4534    3.0161    0.2232
 -161.11   78.44   88.80     0.001000       1.0515    2.1266    0.4458
 -155.55   91.94   96.73     0.001000       1.4677    2.9658    0.2245
 -154.31   91.90   91.73     0.001000       1.3349    3.0405    0.2420
 -153.68   83.70   77.28     0.001000       1.3876    2.9780    0.2367
 -153.96   86.99   85.21     0.001000       1.4719    2.8945    0.2300
 -159.08  102.67   82.55     0.001000       1.1520    2.1959    0.3934
 -154.88   89.83   96.26     0.001000       1.5735    2.9891    0.2075
 -153.85   84.31   81.47     0.001000       1.2158    2.7551    0.2939
 -153.82   97.95  102.48     0.001000       1.2859    3.2466    0.2343
 -154.77  118.57   85.75     0.001000       0.7227    3.4187    0.4010
 -154.54   92.47   90.23     0.001000       1.0322    3.1764    0.3007
 -154.29   87.28   86.37     0.001000       1.2389    2.6416    0.3013
 -153.84   62.43   89.68     0.001000       0.8505    3.6017    0.3219
 -155.52   88.31   88.61     0.001000       1.3608    3.0138    0.2387
 -154.04   91.65   92.58     0.001000       1.3542    3.0113    0.2408
 -154.92   91.49   84.08     0.001000       1.5944    2.9651    0.2064
 -154.40   92.06   93.09     0.001000       1.4348    2.9713    0.2299
 -154.04   88.13   90.87     0.001000       1.2433    2.5421    0.3124
 -157.95  113.56   74.15     0.001000       1.0341    3.2525    0.2936
 -153.89   91.99   93.29     0.001000       1.3532    3.0143    0.2410
 -154.76   90.27   83.41     0.001000       1.5217    3.0125    0.2131
 -154.96   93.01   77.08     0.001000       1.6430    3.0004    0.1976
 -155.63   99.27   77.87     0.001000       1.0563    3.8341    0.2418
 -154.05   91.01   93.02     0.001000       1.3516    3.1025    0.2340
 -154.80   94.70   94.46     0.001000       1.2001    2.7576    0.2973
 -154.54   87.09   78.57     0.001000       1.1348    3.7773    0.2280
 -153.63   66.30   94.91     0.001000       0.7097    3.4135    0.4099
 -156.62   71.90  104.69     0.001000       1.1339    2.6776    0.3266
 -149.47   80.96   77.42     0.001000       0.9896    2.8685    0.3515
 -154.23   86.55   76.67     0.001000       1.4960    3.0414    0.2144
 -154.92   92.03   87.32     0.001000       1.0014    4.1897    0.2325
 -155.32   92.66   87.88     0.001000       1.1337    2.7366    0.3176
 -154.82   90.56   96.67     0.001000       1.0215    4.0946    0.2334
 -154.07   91.27   91.16     0.001000       1.3757    3.0043    0.2376
 -149.37   85.60   85.07     0.001000       1.0273    2.9152    0.3337
 -155.21   88.23   82.49     0.001000       1.0290    4.0205    0.2358
 -154.17   89.32   87.70     0.001000       1.3842    2.9783    0.2382
 -154.39   92.07   93.51     0.001000       1.4186    3.0147    0.2288
 -154.33   95.04  103.02     0.001000       1.2932    3.3994    0.2222
 -154.58   96.00   97.23     0.001000       1.1430    2.9209    0.2940
 -153.26  108.66   96.48     0.001000       1.0708    3.5306    0.2596
 -154.99   95.61   93.74     0.001000       0.9508    3.0343    0.3414
 -154.18   88.44   87.55     0.001000       1.2376    2.6175    0.3045
 -153.19   92.40   91.30     0.001000       1.3208    2.9790    0.2499
 -155.00   82.25   98.15     0.001000       1.0161    4.0241    0.2392
 -152.73   88.26   86.70     0.001000       1.1601    3.0375    0.2809
 -154.53  100.67   93.36     0.001000       1.0628    3.9739    0.2312
 -154.99   86.36   96.34     0.001000       1.0051    4.1139    0.2362
 -154.78   90.52  104.48     0.001000       1.5581    3.1323    0.1997
 -154.65   90.88   98.65     0.001000       1.6152    2.9874    0.2021
 -154.03   91.50   94.75     0.001000       1.3621    3.0871    0.2333
 -154.28   94.46  103.63     0.001000       1.3434    3.3196    0.2189
 -153.60   92.59   94.38     0.001000       1.4120    2.9760    0.2332
 -154.41   78.64   90.67     0.001000       1.0261    4.0548    0.2349
 -155.02   85.68  105.21     0.001000       1.2932    3.5542    0.2126
 -154.53   91.79   93.68     0.001000       1.3759    2.9896    0.2386
 -154.84   87.80   89.17     0.001000       1.0048    4.1907    0.2317
 -154.27   90.99   94.60     0.001000       1.3466    3.0377    0.2400
 -152.96   92.19   89.96     0.001000       1.3257    2.9628    0.2504
 -154.43   87.42   87.24     0.001000       1.0701    3.1521    0.2924
 -153.18   95.14   96.68     0.001000       1.2839    2.7596    0.2780
 -152.89   87.39   84.39     0.001000       1.2452    2.6141    0.3035
 -154.89   91.80  105.00     0.001000       1.3486    3.3628    0.2153
 -155.52   79.28  101.28     0.001000       1.0553    3.8339    0.2422
 -159.46   75.62   89.34     0.001000       1.2577    2.3062    0.3413
 -153.71  100.86  100.08     0.001000       1.1720    3.1133    0.2686
 -153.83   91.64   92.29     0.001000       1.3489    3.0233    0.2410
 -153.80   83.52   77.29     0.001000       1.2340    3.4678    0.2286
 -156.65   98.22   68.74     0.001000       1.4982    2.9431    0.2218
 -149.21   93.62   96.51     0.001000       1.2168    2.6689    0.3078
 -158.50  103.12   82.61     0.001000       1.4665    2.4323    0.2759
 -152.11   92.81   90.74     0.001000       1.2725    2.7848    0.2784
 -150.13   96.96  100.61     0.001000       1.0370    2.9264    0.3286
 -152.60   92.05   90.85     0.001000       1.3121    2.9299    0.2560
 -154.48   90.94   94.90     0.001000       1.3978    3.0731    0.2280
 -154.60   89.91   79.86     0.001000       1.6023    2.9912    0.2035
 -154.90   91.14   90.85     0.001000       1.1797    2.6983    0.3096
 -153.97   90.89   90.33     0.001000       1.3654    3.0128    0.2388
 -153.89   76.08   87.35     0.001000       1.0568    3.9157    0.2365
 -154.73   90.06   83.90     0.001000       1.4564    3.0416    0.2208
 -153.23   94.44   94.54     0.001000       1.3864    2.8508    0.2487
 -154.19   90.08   87.36     0.001000       1.3364    2.9815    0.2467
 -154.26   87.35   74.72     0.001000       1.3649    3.3266    0.2149
 -153.58  109.55   87.99     0.001000       0.7056    3.4595    0.4057
 -158.53   77.86   96.98     0.001000       1.5442    2.4491    0.2596
 -154.75   93.60   96.24     0.001000       1.0946    2.9173    0.3080
 -155.84   91.28   88.68     0.001000       1.4054    2.9339    0.2374
 -154.84   90.54   84.52     0.001000       1.4910    2.9951    0.2189
 -148.45   96.75   98.39     0.001000       0.8903    2.9357    0.3833
 -155.48   95.05   75.84     0.001000       1.6239    2.9995    0.2000
 -154.29   86.97   81.23     0.001000       1.1681    2.7604    0.3056
 -153.39  105.10   98.67     0.001000       1.1159    3.3793    0.2600
 -154.27   81.38   84.91     0.001000       1.0659    3.9656    0.2311
 -152.58   90.94   90.22     0.001000       1.2697    2.6994    0.2879
 -153.49   61.98   90.28     0.001000       0.7867    3.5430    0.3546
 -154.18  108.53   76.85     0.001000       0.7084    3.0974    0.4549
 -153.90   82.54   78.84     0.001000       1.1792    3.5856    0.2313
 -155.03  116.56   86.45     0.001000       0.9375    3.6237    0.2899
 -157.28   84.88   89.87     0.001000       1.0181    2.1424    0.4581
 -154.25   84.86   78.36     0.001000       1.4560    2.9131    0.2305
 -153.46   96.05   98.79     0.001000       1.3160    2.8280    0.2641
 -154.68   90.04  102.97     0.001000       1.1674    3.7655    0.2223
 -152.21   87.78   86.32     0.001000       1.2800    2.7683    0.2785
 -154.89   89.83   87.85     0.001000       1.0081    3.1784    0.3077
 -155.03   89.42   93.06     0.001000       1.1680    2.6926    0.3134
 -157.15  104.25   70.13     0.001000       1.3952    2.9438    0.2390
 -153.67   83.46   78.75     0.001000       1.3076    2.8813    0.2604
 -159.29   70.30  102.69     0.001000       1.2235    2.3249    0.3490
 -159.51  108.36   75.47     0.001000       1.4020    2.4357    0.2888
 -154.05   90.37   91.36     0.001000       1.3505    3.0081    0.2419
 -159.64   87.69   86.68     0.001000       1.1698    2.7093    0.3105
 -154.58   95.67   97.33     0.001000       1.1752    2.8769    0.2903
 -155.05   85.39  106.05     0.001000       1.4148    3.3857    0.2037
 -155.36   94.14   77.48     0.001000       1.6587    2.9366    0.2000
 -153.46   94.16   92.00     0.001000       1.4072    2.8552    0.2441
 -154.52   73.82   91.09     0.001000       1.0279    3.8819    0.2456
 -154.25   88.60   83.06     0.001000       1.2488    2.6631    0.2963
 -154.06   89.16   84.36     0.001000       1.3541    3.0232    0.2399
 -154.65   90.61   95.24     0.001000       1.3786    3.0827    0.2305
 -159.93   73.24   88.52     0.001000       1.0447    2.0512    0.4660
 -154.33   90.81   89.55     0.001000       1.2239    2.5891    0.3115
 -154.98   74.14   97.91     0.001000       1.1323    2.2378    0.3938
 -153.25   83.49   79.92     0.001000       1.3294    2.8350    0.2605
 -154.68   91.85   93.66     0.001000       1.3894    2.9776    0.2372
 -152.34   97.90   96.13     0.001000       0.9924    3.1157    0.3206
 -153.98   86.06   88.21     0.001000       0.9828    3.2096    0.3130
 -147.13   87.64   79.18     0.001000       1.2398    2.4137    0.3356
 -154.97   92.93   72.54     0.001000       1.4362    3.3064    0.2056
 -153.93   63.42   89.82     0.001000       0.8988    3.5786    0.3065
 -153.51  100.47   99.31     0.001000       1.1593    3.6558    0.2308
 -154.52   90.31   88.38     0.001000       1.3795    2.9578    0.2406
 -153.34   90.43   88.78     0.001000       1.3351    3.0041    0.2450
 -153.83   95.95   99.04     0.001000       1.2106    2.8298    0.2872
 -154.89   89.41   94.66     0.001000       1.5292    3.0264    0.2109
 -153.48   95.15   95.31     0.001000       1.0112    3.1843    0.3070
 -153.97   79.68   81.25     0.001000       1.0679    3.1294    0.2935
 -147.49   97.97  104.55     0.001000       1.0685    2.4941    0.3765
 -154.54   95.70   95.07     0.001000       1.0012    3.0696    0.3200
 -154.91   91.44   72.92     0.001000       1.4011    3.3509    0.2079
 -154.72   83.97   94.47     0.001000       1.0047    4.1537    0.2340
 -160.72   84.78   88.77     0.001000       1.0336    2.5380    0.3770
 -155.30   89.66   91.23     0.001000       1.4780    3.0085    0.2197
 -154.36   90.70   94.33     0.001000       1.3358    2.9980    0.2454
 -154.99   87.63  103.61     0.001000       1.1669    3.7557    0.2231
 -154.17   94.74  101.36     0.001000       1.1825    3.6981    0.2234
 -148.69   90.86   90.51     0.001000       1.0032    2.9373    0.3401
 -155.78   60.27   98.19     0.001000       0.8737    3.4592    0.3274
 -154.34   89.48   90.04     0.001000       1.4012    2.9228    0.2399
 -154.28   89.40   85.62     0.001000       1.3730    3.0285    0.2357
 -153.34   84.26   79.86     0.001000       1.2735    2.8207    0.2738
 -152.80   94.14   92.65     0.001000       1.0523    3.1338    0.3001
 -156.24   88.53   90.07     0.001000       1.4456    2.9749    0.2271
 -155.51   88.25   78.83     0.001000       1.5402    2.9778    0.2125
 -155.90   92.26   91.18     0.001000       1.2852    3.0104    0.2535
 -154.50   83.33   83.49     0.001000       1.0540    3.0303    0.3074
 -149.97   82.21   83.04     0.001000       0.7527    3.1217    0.4244
 -154.91   89.08   84.68     0.001000       1.3602    3.0623    0.2353
 -154.93   89.87   94.44     0.001000       1.5433    2.9914    0.2115
 -154.00   91.98   90.45     0.001000       1.4203    2.9665    0.2328
 -154.87   90.65   95.37     0.001000       1.1411    2.6538    0.3259
 -153.20   88.68   87.59     0.001000       1.2693    2.6611    0.2921
 -154.31   90.14   92.50     0.001000       1.3554    2.9522    0.2457
 -154.35   94.49   97.88     0.001000       1.1611    2.8025    0.3026
 -154.70   90.53   95.19     0.001000       1.4287    3.0667    0.2233
 -155.45   87.02   98.67     0.001000       1.6819    2.8738    0.2016
 -159.82   85.07   86.65     0.001000       1.1736    2.6481    0.3169
 -153.39   90.60   87.20     0.001000       1.3607    3.0939    0.2334
 -150.48   84.31   81.39     0.001000       1.0806    2.9202    0.3156
 -154.81   91.14   76.83     0.001000       1.1261    3.8053    0.2282
 -154.53   96.19   93.81     0.001000       1.0414    4.0838    0.2295
 -154.41  111.15   91.32     0.001000       1.0303    3.6917    0.2578
 -156.68  122.67   82.88     0.001000       0.7400    3.3716    0.3970
 -156.06  105.21   78.96     0.001000       1.0195    3.7679    0.2554
 -153.87   96.46   98.73     0.001000       1.3592    2.8010    0.2575
 -153.68   93.12   94.91     0.001000       1.2232    2.5770    0.3134
 -162.43   88.85   91.38     0.001000       1.1022    2.3723    0.3787
 -154.30   91.18   93.94     0.001000       1.3467    2.9902    0.2440
 -155.28   90.13   85.46     0.001000       1.1046    2.6939    0.3315
 -154.82   91.89   73.45     0.001000       1.5541    3.1340    0.2002
 -148.61   99.97  101.59     0.001000       0.9906    2.7664    0.3648
 -154.79   75.30   91.90     0.001000       1.0228    3.9236    0.2440
 -156.18   80.84  107.15     0.001000       1.6419    2.7146    0.2194
 -159.87  113.06   67.28     0.001000       1.1482    2.8385    0.3035
 -153.57  101.42  100.52     0.001000       1.1898    3.4186    0.2407
 -154.93   87.05  105.85     0.001000       1.3381    3.4869    0.2094
 -153.71   91.28   85.15     0.001000       1.2108    2.4773    0.3298
 -154.64   92.47   94.11     0.001000       1.0182    4.1695    0.2297
 -161.29   97.04   89.80     0.001000       1.0090    2.4854    0.3948
 -153.59   94.13   94.07     0.001000       1.2582    2.6519    0.2957
 -154.14   84.26   78.85     0.001000       1.1663    3.6777    0.2279
 -153.09   86.97   86.09     0.001000       1.2691    2.6615    0.2921
 -153.73   93.08   97.16     0.001000       1.2271    2.6972    0.2980
 -155.27  108.71   85.19     0.001000       1.0102    3.8396    0.2527
 -153.23   92.50   89.90     0.001000       1.2636    2.5934    0.3012
 -153.44   92.35   95.05     0.001000       1.2904    2.6954    0.2832
 -154.65   89.66   96.44     0.001000       1.5844    2.9998    0.2053
 -154.00   90.17   87.22     0.001000       1.3612    2.9663    0.2435
 -153.45   90.51   93.55     0.001000       1.3727    3.0344    0.2360
 -154.57   90.81   95.30     0.001000       1.3424    3.0750    0.2376
 -154.17   88.98   86.62     0.001000       1.3532    3.0020    0.2418
 -153.89  111.10   93.51     0.001000       1.0365    3.6027    0.2629
 -154.46   90.31   90.02     0.001000       1.2113    2.6084    0.3123
 -156.84   89.32   87.07     0.001000       1.2819    3.0321    0.2519
 -153.80   88.51   87.94     0.001000       1.3377    3.0030    0.2446
 -154.67   89.64   82.06     0.001000       1.0304    4.0616    0.2334
 -154.56   91.14   94.58     0.001000       1.3622    3.0947    0.2325
 -154.54   87.26   75.39     0.001000       1.3187    3.3834    0.2188
 -153.86   87.71   89.14     0.001000       1.2467    2.5368    0.3123
 -154.10   90.47   86.62     0.001000       1.3497    3.0074    0.2418
 -151.54   93.98   95.57     0.001000       1.0633    3.0797    0.3034
 -152.91   94.24   94.44     0.001000       1.0978    3.0960    0.2911
 -155.28   92.80   88.29     0.001000       1.1431    2.7167    0.3174
 -153.21   89.18   83.64     0.001000       1.2103    2.5332    0.3226
 -152.87   71.16   82.85     0.001000       0.9804    3.3601    0.2987
 -154.27   93.67  104.31     0.001000       1.4065    3.2461    0.2136
 -155.24   83.97  101.52     0.001000       1.0796    3.8694    0.2342
 -153.95   90.11   86.01     0.001000       1.3721    2.9716    0.2412
 -156.14   89.91   93.69     0.001000       1.3825    2.9593    0.2393
 -154.75   92.83   92.82     0.001000       0.9918    3.2393    0.3069
 -156.53  104.15   71.71     0.001000       1.3143    3.1719    0.2354
 -151.28  100.89   97.08     0.001000       0.9126    3.0909    0.3522
 -160.04   80.17   90.10     0.001000       1.3462    2.3913    0.3061
 -149.41   89.96   95.53     0.001000       0.9942    2.4330    0.4147
 -154.07   90.16   92.53     0.001000       1.3701    3.1263    0.2288
 -159.48  109.00   73.20     0.001000       1.0354    2.5420    0.3776
 -154.58   89.60   84.19     0.001000       1.3530    3.0760    0.2356
 -153.78   85.15   79.86     0.001000       1.4799    2.8894    0.2287
 -154.47   89.81  103.19     0.001000       1.6132    3.0703    0.1968
 -157.07   65.41  101.72     0.001000       0.9963    3.3997    0.2914
 -154.23   92.61   92.10     0.001000       1.2559    2.6445    0.2968
 -153.69   96.73  101.69     0.001000       1.3870    3.0022    0.2349
 -154.46   87.98   86.06     0.001000       1.3391    3.0880    0.2372
 -154.18   91.75   89.80     0.001000       0.7637    3.2911    0.3938
 -160.53  104.89   87.63     0.001000       1.1019    2.0883    0.4333
 -154.84   89.46  102.10     0.001000       1.6351    3.0047    0.1984
 -154.62   89.87   98.22     0.001000       1.6111    2.9914    0.2024
 -154.23   69.38   90.23     0.001000       1.0160    3.7410    0.2583
 -154.65   88.64   81.61     0.001000       1.5640    2.9226    0.2137
 -154.89   89.77  105.74     0.001000       1.4012    3.3820    0.2059
 -154.94   77.26   94.20     0.001000       1.0121    3.9840    0.2428
 -153.98   91.64   88.10     0.001000       1.2158    2.4388    0.3337
 -154.39   91.66   93.25     0.001000       1.3540    3.0221    0.2400
 -154.50   91.62   94.11     0.001000       1.3650    2.9883    0.2407
 -153.15   80.26   77.57     0.001000       1.2247    3.2999    0.2424
 -152.88   87.39   90.46     0.001000       0.7421    3.3385    0.4003
 -158.93   74.48   91.81     0.001000       1.2454    2.2558    0.3530
 -160.28   61.53  107.33     0.001000       0.9024    2.6121    0.4229
 -154.59   93.76   96.35     0.001000       1.5553    2.8667    0.2191
 -154.22   60.66   91.80     0.001000       0.7688    3.4754    0.3702
