MORPHOLOGY AT STRAIN =    1.0000  FOR PHASE  1
   1.133   3.874   0.228  <-- AXES OF PHASE ELLIPSOID
 -161.94   90.00   90.00  <-- EULER ANGLES OF PHASE ELLIPSOID (deg)
   1.091   2.395   0.413  <-- AVERAGE OF GRAIN AXES FOR PHASE
   0.098   0.308   0.248  <-- STANDARD DEV OF AVG GRAIN AXES FOR PHASE
B       500
 -153.69  122.18   80.19     0.002000       0.9746    2.1198    0.4833
 -154.36   93.05  106.11     0.002000       1.1075    2.8681    0.3137
 -155.93   87.14  100.99     0.002000       1.0008    4.1186    0.2427
 -152.41   89.34   89.57     0.002000       1.1271    1.9612    0.4517
 -152.35   92.89   91.34     0.002000       1.1231    1.9901    0.4468
 -155.89   88.99   87.00     0.002000       1.0000    4.3056    0.2327
 -151.97   86.67   87.29     0.002000       1.1336    2.0933    0.4210
 -154.87   86.54   80.15     0.002000       1.0281    3.6093    0.2693
 -153.05   88.18   86.45     0.002000       1.1389    1.9793    0.4427
 -153.12   70.56   92.27     0.002000       1.0231    2.5639    0.3806
 -155.95   85.43   95.92     0.002000       1.0003    4.1943    0.2387
 -155.64   93.38   93.10     0.002000       1.0010    4.1524    0.2410
 -153.50   88.13   84.88     0.002000       1.1907    1.8562    0.4511
 -153.16   90.98   92.16     0.002000       1.2152    2.0005    0.4103
 -152.39   96.10   92.74     0.002000       1.1786    1.7698    0.4783
 -150.31   86.40   89.20     0.002000       0.9539    2.0517    0.5112
 -155.58   84.75   90.40     0.002000       1.0014    4.0767    0.2453
 -149.32   57.14   88.49     0.002000       0.8792    1.9549    0.5813
 -149.33   67.70   90.15     0.002000       0.8321    1.9790    0.6072
 -153.63  101.73   93.30     0.002000       1.0499    2.9123    0.3266
 -154.05   89.23   80.76     0.002000       1.2794    1.9091    0.4077
 -154.93   90.38  107.46     0.002000       1.0791    3.1215    0.2959
 -155.28   96.29   91.29     0.002000       1.0093    3.8876    0.2551
 -155.55   89.14  103.54     0.002000       1.0183    3.8186    0.2570
 -152.34   90.68   89.78     0.002000       1.1177    1.9630    0.4552
 -156.52   99.39   75.81     0.002000       1.3028    1.7084    0.4472
 -153.35   92.45   91.42     0.002000       1.1370    1.8681    0.4697
 -153.29   90.48   86.12     0.002000       1.2012    1.9938    0.4164
 -149.91   86.02   88.34     0.002000       0.9948    2.3619    0.4264
 -153.70   88.16   94.49     0.002000       1.2378    1.9542    0.4120
 -152.97   92.19   90.43     0.002000       1.1137    1.8968    0.4724
 -155.15   92.85   63.12     0.002000       1.2319    2.4911    0.3240
 -153.56   91.53   85.35     0.002000       1.2543    1.9769    0.4020
 -149.72   84.27   85.61     0.002000       0.9725    2.2159    0.4646
 -154.93   84.94  117.56     0.002000       1.3336    2.3739    0.3143
 -153.70   91.51   82.76     0.002000       1.2865    1.9590    0.3954
 -155.25   88.53  109.87     0.002000       1.0848    3.0910    0.2971
 -152.22  109.13  100.91     0.002000       1.0444    1.8341    0.5207
 -151.85   83.38   89.01     0.002000       1.1043    1.6853    0.5364
 -152.37   87.00   87.36     0.002000       1.1520    2.0839    0.4160
 -152.10   74.14   79.60     0.002000       1.0740    2.1473    0.4323
 -154.11   91.12   90.93     0.002000       1.1569    1.8818    0.4579
 -152.39   93.41   92.25     0.002000       1.1260    2.0141    0.4403
 -156.21   98.45   62.21     0.002000       1.1600    3.0244    0.2839
 -153.19   90.98   92.35     0.002000       1.1738    1.9877    0.4276
 -151.80   88.02   87.23     0.002000       1.1368    2.0792    0.4228
 -152.19  113.59   90.51     0.002000       1.0168    2.2006    0.4460
 -152.39   92.54   90.92     0.002000       1.1219    1.9764    0.4503
 -154.20   94.17   74.84     0.002000       1.3557    2.0068    0.3660
 -155.05  103.97   81.09     0.002000       1.0228    3.2119    0.3041
 -154.58  100.12   89.73     0.002000       1.0271    3.3928    0.2869
 -152.95   92.85   92.48     0.002000       1.1291    1.9384    0.4560
 -153.31   90.02   94.08     0.002000       1.2384    1.9679    0.4091
 -155.81   91.15   81.21     0.002000       1.0003    4.1637    0.2403
 -149.84   57.98   85.11     0.002000       0.9122    1.8948    0.5777
 -149.78   90.55   90.12     0.002000       0.8632    1.9620    0.5905
 -151.62   84.67   87.63     0.002000       0.9776    1.9698    0.5189
 -155.09   93.79   62.79     0.002000       1.2454    2.7373    0.2919
 -155.88   92.70   90.22     0.002000       1.0001    4.2880    0.2337
 -152.27   91.65   92.31     0.002000       1.1524    1.9522    0.4438
 -156.01   88.39   93.41     0.002000       1.0000    4.3479    0.2305
 -152.78   93.92   91.39     0.002000       1.1471    2.0169    0.4314
 -150.29   96.61   90.80     0.002000       0.8378    1.9408    0.6148
 -155.98   91.85   85.73     0.002000       1.0001    4.3100    0.2324
 -152.88   88.71   87.16     0.002000       1.1108    1.9121    0.4699
 -152.82   92.20   93.82     0.002000       1.1316    1.9883    0.4436
 -155.46   88.84  105.52     0.002000       1.0343    3.6121    0.2672
 -154.67   90.80  104.03     0.002000       1.2748    1.8825    0.4147
 -153.88   95.51  104.55     0.002000       1.1212    2.6698    0.3328
 -153.02   92.94   93.24     0.002000       1.2119    1.9131    0.4301
 -151.89   88.36   86.21     0.002000       1.1378    2.1785    0.4032
 -152.19   93.15   91.89     0.002000       1.1249    2.0245    0.4386
 -155.04   82.30   89.44     0.002000       1.0107    3.7478    0.2642
 -151.97   85.74   88.26     0.002000       0.9921    1.9551    0.5151
 -154.84   94.60   98.29     0.002000       1.0333    3.5777    0.2704
 -155.71   85.53   90.65     0.002000       1.0005    4.1597    0.2407
 -156.04   85.01  104.20     0.002000       1.0076    3.9800    0.2493
 -155.26   85.71  117.07     0.002000       1.2411    2.8098    0.2854
 -152.88   93.05   92.67     0.002000       1.1312    1.9832    0.4449
 -155.55   88.13  106.60     0.002000       1.0389    3.5823    0.2682
 -152.86   91.85   93.81     0.002000       1.1420    2.0022    0.4365
 -154.60   83.40   84.21     0.002000       1.0254    3.5301    0.2762
 -154.99   80.05   93.01     0.002000       1.0145    3.5875    0.2748
 -152.98   92.85   92.55     0.002000       1.1165    1.9284    0.4635
 -155.96   89.20   88.47     0.002000       1.0000    4.3493    0.2304
 -152.46   93.36   92.29     0.002000       1.1252    2.0041    0.4428
 -152.04   92.67   90.60     0.002000       1.1296    2.0306    0.4355
 -156.05   93.18   85.90     0.002000       0.9934    1.6049    0.6259
 -153.23   90.20   92.79     0.002000       1.2182    2.0040    0.4085
 -152.05   87.72   85.90     0.002000       1.1216    2.0420    0.4362
 -155.89   87.54  102.13     0.002000       1.0029    4.1033    0.2431
 -154.31   79.27   89.45     0.002000       1.0244    3.3066    0.2951
 -149.29   93.12   89.50     0.002000       0.9119    2.1363    0.5139
 -154.75   89.89  112.83     0.002000       1.1870    2.4092    0.3478
 -152.52   92.08   90.60     0.002000       1.1189    1.9514    0.4573
 -155.28   90.57   74.86     0.002000       1.0345    3.5624    0.2708
 -154.09  106.33   84.78     0.002000       1.0291    2.8473    0.3408
 -151.32   94.02   89.95     0.002000       0.9824    1.9851    0.5126
 -149.28   98.30   87.82     0.002000       0.8347    2.0317    0.5899
 -151.90   92.17   91.02     0.002000       1.1238    2.0362    0.4366
 -151.01   94.99   92.36     0.002000       0.9902    2.0948    0.4821
 -152.08   93.49   91.30     0.002000       1.1340    2.0526    0.4292
 -153.44   90.22   92.51     0.002000       1.1813    1.9593    0.4309
 -155.53   94.89   63.62     0.002000       1.1836    3.0295    0.2777
 -151.76   90.63   87.22     0.002000       1.1416    2.0515    0.4267
 -152.88   90.72   88.91     0.002000       1.1126    1.8988    0.4725
 -154.29   83.93   81.03     0.002000       1.0471    3.2753    0.2912
 -153.80   92.57   83.91     0.002000       1.2681    1.9547    0.4020
 -153.31   89.95   92.65     0.002000       1.2188    1.9939    0.4104
 -152.06   89.08   88.74     0.002000       1.1194    2.0031    0.4455
 -155.67   92.74   74.06     0.002000       1.0231    3.7510    0.2602
 -152.20  119.05   97.56     0.002000       0.8965    1.7067    0.6524
 -151.15   56.58   93.90     0.002000       0.9153    2.0352    0.5363
 -153.98   91.94   97.17     0.002000       1.2219    1.8642    0.4374
 -154.66   94.17   84.18     0.002000       1.2555    1.8342    0.4325
 -154.30   94.68   76.08     0.002000       1.3404    1.9643    0.3782
 -150.75   97.40   92.44     0.002000       0.9685    2.0421    0.5056
 -154.40  105.71   83.52     0.002000       1.0271    2.9516    0.3294
 -153.19   89.10   82.92     0.002000       1.1797    1.9719    0.4288
 -154.28   92.89  107.59     0.002000       1.1296    2.6981    0.3267
 -155.09   86.49   82.08     0.002000       1.0136    3.8131    0.2588
 -151.69   89.02   88.65     0.002000       1.1304    2.1729    0.4070
 -152.19   73.86   77.00     0.002000       1.0865    1.9448    0.4718
 -151.14  122.47   86.98     0.002000       0.8958    1.9597    0.5691
 -155.13   89.30   76.38     0.002000       1.0338    3.5780    0.2699
 -152.52  105.11   97.40     0.002000       1.0750    2.3063    0.4022
 -150.33   88.31   89.73     0.002000       0.9978    2.3670    0.4242
 -155.14   93.19   62.72     0.002000       1.2464    2.4747    0.3224
 -153.89   88.30   97.94     0.002000       1.3239    1.9573    0.3843
 -156.00   86.23   96.86     0.002000       1.0002    4.2250    0.2370
 -151.98   87.88   86.93     0.002000       1.1206    2.0367    0.4377
 -152.66   90.37   83.68     0.002000       1.0511    1.6197    0.5865
 -152.22   91.00   87.73     0.002000       1.1608    1.9539    0.4403
 -152.73  113.55   87.53     0.002000       1.0172    2.2914    0.4282
 -154.76   93.52   67.81     0.002000       1.3016    1.9943    0.3833
 -152.05   58.99   96.42     0.002000       0.8633    2.0376    0.5681
 -151.88  123.54   85.51     0.002000       0.9345    2.0206    0.5290
 -152.26   92.86   92.60     0.002000       1.1370    2.0666    0.4251
 -162.62   87.51   89.42     0.002000       0.9856    1.4944    0.6772
 -154.66   90.79  103.41     0.002000       1.2658    1.8746    0.4194
 -154.76   78.68   93.37     0.002000       1.0191    3.4166    0.2871
 -154.70  105.95   81.48     0.002000       1.0240    2.9899    0.3262
 -153.41   91.93   94.50     0.002000       1.1722    1.9050    0.4466
 -153.88   81.54   82.80     0.002000       1.0497    3.0980    0.3071
 -152.71   87.67   87.40     0.002000       1.1695    1.9345    0.4411
 -152.42   86.82   87.07     0.002000       1.1215    2.0030    0.4445
 -153.13   91.57   92.70     0.002000       1.1523    1.9811    0.4371
 -149.78   87.46   89.32     0.002000       1.0073    2.2566    0.4407
 -151.52   89.86   87.83     0.002000       1.1236    2.1921    0.4060
 -150.10   95.75   92.82     0.002000       0.9842    2.1622    0.4703
 -155.01   91.25   70.50     0.002000       1.2718    1.9268    0.4060
 -153.18   92.44   93.28     0.002000       1.1160    1.9185    0.4660
 -151.23   90.23   88.30     0.002000       0.8995    1.8952    0.5864
 -153.36   99.93   92.81     0.002000       1.1347    1.6308    0.5391
 -150.51   86.45   88.10     0.002000       1.0056    2.1511    0.4626
 -155.23  100.50   84.25     0.002000       1.0187    3.5588    0.2758
 -152.36   75.92   79.40     0.002000       1.0853    2.2457    0.4090
 -154.90   91.86  103.75     0.002000       1.0550    3.3698    0.2807
 -152.27   90.49   88.85     0.002000       1.1237    1.9763    0.4497
 -152.19   89.21   86.99     0.002000       1.1396    2.0275    0.4323
 -153.69   88.83   96.66     0.002000       1.2953    1.9770    0.3891
 -155.08   83.56  117.63     0.002000       1.3436    2.2321    0.3318
 -152.24   93.45   91.57     0.002000       0.9952    1.9661    0.5105
 -154.36   89.72   67.54     0.002000       1.2360    2.1854    0.3682
 -151.40   95.29   90.55     0.002000       0.9741    1.9684    0.5213
 -154.14   92.61   96.35     0.002000       1.2552    1.8380    0.4318
 -155.84   97.59   81.54     0.002000       1.0046    3.9252    0.2536
 -155.41   84.63   88.65     0.002000       1.0030    4.0026    0.2494
 -161.01   67.40   87.07     0.002000       0.9998    1.4388    0.6940
 -154.18   87.65   93.59     0.002000       1.2091    1.8773    0.4390
 -152.31   92.53   91.16     0.002000       1.1220    1.9883    0.4477
 -155.67   83.27   94.30     0.002000       1.0027    4.0061    0.2492
 -155.49   90.45  101.26     0.002000       1.0123    3.9078    0.2528
 -150.72   91.01   89.88     0.002000       0.9999    2.2817    0.4387
 -151.37   67.67   84.48     0.002000       1.0128    2.1269    0.4632
 -152.64   90.42   88.82     0.002000       1.1288    1.9335    0.4574
 -152.38   87.68   86.53     0.002000       1.1188    1.9971    0.4469
 -153.90   92.01   81.43     0.002000       1.3166    1.9517    0.3876
 -159.38   89.65   82.26     0.002000       0.9406    1.5393    0.6892
 -154.61   86.73   93.81     0.002000       1.2043    1.8307    0.4519
 -154.83   94.64   62.42     0.002000       1.3327    2.3927    0.3120
 -154.12   92.98   90.24     0.002000       1.1111    1.7888    0.5018
 -154.30   90.30   76.19     0.002000       1.2977    1.8782    0.4084
 -151.74  111.27   96.55     0.002000       0.8383    1.7110    0.6962
 -153.44   88.27   86.33     0.002000       1.1295    1.9250    0.4588
 -154.51   84.93  109.82     0.002000       1.3649    2.0432    0.3569
 -153.26   92.54   90.23     0.002000       1.1811    1.9836    0.4258
 -152.63   91.90   93.18     0.002000       1.1631    1.9246    0.4458
 -152.07   90.56   87.12     0.002000       1.1481    2.1937    0.3968
 -152.24   91.37   90.38     0.002000       1.1197    1.9816    0.4501
 -153.33   89.92   95.87     0.002000       1.2231    1.9982    0.4080
 -153.56   89.03   93.25     0.002000       1.2207    1.9619    0.4163
 -155.31   74.53  102.16     0.002000       1.0170    3.1551    0.3113
 -162.60   79.44   89.93     0.002000       0.9962    1.4694    0.6815
 -152.66   87.79   86.24     0.002000       1.1292    1.9884    0.4446
 -152.17   85.37   88.68     0.002000       0.9755    1.9052    0.5375
 -155.86   95.54   84.50     0.002000       1.0010    4.1091    0.2434
 -155.46   93.15   95.77     0.002000       1.0042    4.0413    0.2467
 -153.58   98.36  100.13     0.002000       1.0917    2.7489    0.3323
 -151.52  110.45   98.15     0.002000       1.0257    1.9743    0.4927
 -153.80  102.21   91.47     0.002000       1.0429    2.9735    0.3221
 -154.68   89.03  105.87     0.002000       1.2981    1.9302    0.3971
 -152.16   92.39   93.94     0.002000       1.1269    2.0335    0.4358
 -148.93   95.58   94.25     0.002000       0.9720    2.3474    0.4393
 -152.29   92.71   91.19     0.002000       1.1230    1.9944    0.4459
 -152.69   90.40   85.10     0.002000       1.1546    1.9129    0.4519
 -155.59  100.15   81.34     0.002000       1.0146    3.6498    0.2699
 -152.02   96.14   89.48     0.002000       0.9571    1.8902    0.5523
 -154.09   81.82   83.67     0.002000       1.0410    3.2271    0.2974
 -153.58   66.97   97.26     0.002000       1.0115    2.4936    0.3958
 -152.76  118.72   85.55     0.002000       0.9986    2.1276    0.4698
 -154.86   90.77  107.06     0.002000       1.0802    3.1134    0.2964
 -155.26   80.65   94.29     0.002000       1.0108    3.7054    0.2671
 -151.81   90.54   88.93     0.002000       1.1342    2.0242    0.4352
 -155.94   90.61   93.48     0.002000       1.0000    4.3251    0.2317
 -160.43  110.76   90.26     0.002000       1.0072    1.4232    0.6967
 -152.56   92.79   92.76     0.002000       1.1451    2.0419    0.4270
 -155.36   89.46   78.43     0.002000       1.0139    3.8429    0.2566
 -152.24   86.79   86.48     0.002000       1.1277    2.0560    0.4308
 -152.77   92.33   94.87     0.002000       1.1537    1.9748    0.4380
 -153.52  100.80   95.64     0.002000       1.0620    2.8495    0.3298
 -151.90   93.09   91.43     0.002000       1.1360    2.0711    0.4247
 -152.67   92.25   92.38     0.002000       1.1573    1.9498    0.4423
 -155.50   84.26  118.41     0.002000       1.2460    2.7638    0.2890
 -152.30   89.19   88.75     0.002000       1.1172    1.9699    0.4538
 -152.56   93.89   91.64     0.002000       1.1305    1.9965    0.4423
 -152.68   93.18   92.75     0.002000       1.1277    1.9962    0.4434
 -152.23   86.99   87.33     0.002000       1.1215    2.0182    0.4412
 -153.57   97.62  102.14     0.002000       1.1098    2.6447    0.3396
 -151.60   90.20   92.52     0.002000       1.1292    2.1885    0.4046
 -154.20   86.73   86.71     0.002000       1.1098    1.8372    0.4890
 -152.08   87.38   87.85     0.002000       1.1215    2.0234    0.4402
 -155.98   92.79   86.26     0.002000       1.0001    4.2965    0.2331
 -153.09   92.11   92.73     0.002000       1.1421    1.9758    0.4422
 -155.66   92.14   75.83     0.002000       1.0122    3.8574    0.2559
 -151.82   86.96   87.64     0.002000       1.1265    2.0596    0.4306
 -152.15   89.16   88.05     0.002000       1.1196    1.9938    0.4475
 -151.16   94.30   90.66     0.002000       0.9989    2.1307    0.4699
 -152.74   94.42   90.40     0.002000       0.9888    1.8911    0.5340
 -152.23   91.84   92.84     0.002000       1.1443    1.9557    0.4462
 -151.97   89.04   87.51     0.002000       1.1344    2.0131    0.4374
 -153.71   84.46   71.29     0.002000       1.2047    2.1848    0.3780
 -155.65   87.36  108.31     0.002000       1.0541    3.5237    0.2686
 -155.10   81.64   91.20     0.002000       1.0103    3.7390    0.2649
 -152.38   86.49   87.42     0.002000       1.1294    2.0231    0.4370
 -154.91   85.55   95.46     0.002000       1.1886    1.8070    0.4639
 -153.51   92.66   90.91     0.002000       0.9877    1.8409    0.5489
 -153.06  109.50   88.34     0.002000       1.0312    2.4677    0.3922
 -154.71   94.97   82.39     0.002000       0.8814    1.6832    0.6731
 -158.04   56.97  114.08     0.002000       0.9918    1.9661    0.5124
 -150.27   94.28   93.06     0.002000       0.9934    2.2652    0.4449
 -153.21   93.41   92.36     0.002000       1.1281    1.9389    0.4562
 -150.00   96.96   88.77     0.002000       0.8538    1.9622    0.5969
 -152.82   87.58   86.32     0.002000       1.1301    1.9940    0.4429
 -154.62   93.03   67.41     0.002000       1.3439    2.0971    0.3530
 -156.10   82.89  104.17     0.002000       1.0075    3.8977    0.2545
 -152.19   69.84   87.27     0.002000       1.0273    2.3300    0.4169
 -152.36   91.86   91.85     0.002000       1.1628    2.1208    0.4050
 -155.26   87.65  115.72     0.002000       1.2034    2.5184    0.3281
 -152.93   86.77   87.07     0.002000       1.1166    1.9358    0.4617
 -152.72   96.02   94.26     0.002000       1.1449    1.6977    0.5132
 -149.81   92.89   89.48     0.002000       0.9861    2.2860    0.4444
 -156.14   82.35  104.79     0.002000       1.0107    3.8474    0.2570
 -155.69   84.81  115.93     0.002000       1.1774    3.0896    0.2738
 -153.25   79.91   81.24     0.002000       1.0698    2.7448    0.3398
 -154.76   94.52   62.83     0.002000       1.3405    2.3560    0.3150
 -156.00   84.71   99.44     0.002000       1.0005    4.0972    0.2441
 -154.31   81.55   85.64     0.002000       1.0295    3.3692    0.2882
 -151.72   91.08   89.95     0.002000       1.1270    2.0231    0.4383
 -153.05   93.00   91.93     0.002000       1.1150    1.9098    0.4686
 -152.68   92.91   91.97     0.002000       1.1196    1.9554    0.4560
 -154.98   90.66   70.50     0.002000       1.0860    3.0279    0.3029
 -153.43   81.02   80.01     0.002000       1.0092    1.6329    0.6055
 -149.88   94.10   89.69     0.002000       0.9378    2.0819    0.5126
 -148.97   57.46   86.34     0.002000       0.8712    1.9074    0.6012
 -154.27   86.85  107.32     0.002000       1.3595    2.0504    0.3571
 -151.96   73.01   77.87     0.002000       1.0699    1.9581    0.4759
