MORPHOLOGY AT STRAIN =    1.0000  FOR PHASE  1
   1.046   2.336   0.409  <-- AXES OF PHASE ELLIPSOID
 -154.08   90.00   90.00  <-- EULER ANGLES OF PHASE ELLIPSOID (deg)
   1.070   2.584   0.398  <-- AVERAGE OF GRAIN AXES FOR PHASE
   0.155   0.305   0.306  <-- STANDARD DEV OF AVG GRAIN AXES FOR PHASE
B       500
 -160.51  126.68   63.25     0.002000       1.0551    2.0433    0.4649
 -152.62  110.87  102.77     0.002000       1.0200    3.1630    0.3053
 -153.81   90.95  108.15     0.002000       1.0079    3.8411    0.2526
 -154.18   90.18   86.31     0.002000       1.2979    2.0321    0.3788
 -154.08   92.88   99.64     0.002000       1.2192    2.1872    0.3744
 -153.98   86.66   86.53     0.002000       1.0001    4.6713    0.2070
 -149.67   88.40   88.17     0.002000       1.1400    1.8319    0.4813
 -153.29   77.94   80.29     0.002000       1.0038    4.0088    0.2422
 -155.12   89.79   79.92     0.002000       1.3457    2.2373    0.3302
 -156.07   63.38  104.36     0.002000       1.0284    3.0169    0.3193
 -154.39   86.49  102.47     0.002000       1.0011    4.2092    0.2310
 -154.06   95.60   91.90     0.002000       1.0002    4.6199    0.2093
 -156.24   83.15   82.56     0.002000       0.8991    1.9162    0.5812
 -153.61  102.30  102.77     0.002000       1.1244    1.7940    0.4962
 -155.81  102.63   93.31     0.002000       0.7386    2.4146    0.5599
 -143.84   87.12   83.74     0.002000       0.9548    1.8530    0.5715
 -154.20   82.80   94.79     0.002000       1.0006    4.5718    0.2119
 -156.60   49.39  103.66     0.002000       0.8290    2.2613    0.5357
 -152.83   76.36   98.45     0.002000       0.7125    2.3714    0.5942
 -154.86  111.66   85.30     0.002000       1.0025    3.5989    0.2718
 -152.84   65.60   76.16     0.002000       0.8921    2.2006    0.5084
 -151.82  104.69  107.09     0.002000       1.0475    3.3596    0.2796
 -154.43   99.11   86.78     0.002000       1.0007    4.4275    0.2188
 -153.21   96.12  108.17     0.002000       1.0190    3.7013    0.2596
 -153.89   90.60   90.96     0.002000       1.2140    2.1462    0.3837
 -158.49  108.76  101.52     0.002000       1.1613    1.7310    0.4981
 -156.18   93.48   94.94     0.002000       1.1375    2.3151    0.3780
 -153.73   88.87   68.55     0.002000       1.4183    2.2614    0.3097
 -141.89   85.50   83.63     0.002000       0.9972    1.8681    0.5433
 -155.89   89.61  117.14     0.002000       1.4162    2.3254    0.3004
 -156.12   93.68   93.96     0.002000       1.1335    2.2455    0.3916
 -151.95   80.39   64.16     0.002000       1.1580    2.7215    0.3140
 -153.86   85.85   65.01     0.002000       1.4171    2.1337    0.3286
 -143.20   80.81   75.67     0.002000       0.9382    1.9225    0.5603
 -155.10   85.73  119.00     0.002000       1.3519    2.6561    0.2750
 -151.91   73.54   68.60     0.002000       1.1150    2.0098    0.4458
 -152.22  101.82  110.27     0.002000       1.0743    3.1251    0.2935
 -153.24  130.49   89.47     0.002000       0.8106    2.6591    0.4629
 -156.32   81.84   88.02     0.002000       0.8315    2.3768    0.5052
 -153.54   83.42   85.33     0.002000       1.0992    1.7121    0.5329
 -153.29   54.88   86.60     0.002000       0.9099    2.9331    0.3713
 -156.21   82.87   84.77     0.002000       1.1605    2.2665    0.3785
 -153.87   92.38   96.40     0.002000       1.2628    2.1491    0.3678
 -156.30  100.02   62.24     0.002000       1.3548    2.5477    0.2864
 -154.46   91.78  103.47     0.002000       1.4403    2.0933    0.3299
 -152.74   86.89   93.35     0.002000       1.0796    1.6323    0.5699
 -157.01  123.90   77.40     0.002000       0.9933    2.7435    0.3645
 -153.90   93.98   97.14     0.002000       1.2254    2.2014    0.3701
 -154.88   92.69   60.40     0.002000       1.4002    2.4977    0.2827
 -156.13  106.19   68.77     0.002000       1.0774    3.2638    0.2803
 -155.07  104.95   81.46     0.002000       1.0019    3.9662    0.2456
 -155.54   91.23   94.84     0.002000       1.1652    2.3673    0.3607
 -154.83  104.47  101.89     0.002000       1.0672    1.8782    0.4986
 -153.71   86.77   76.40     0.002000       1.0012    4.1468    0.2345
 -155.22   56.00   94.41     0.002000       0.7867    2.7377    0.4633
 -149.24   88.34  100.25     0.002000       0.7358    2.1644    0.6320
 -150.99   78.12   82.27     0.002000       0.8353    2.3172    0.5185
 -152.63   86.53   61.93     0.002000       1.1958    2.9394    0.2809
 -154.27   93.13   88.23     0.002000       1.0001    4.6750    0.2066
 -157.50   97.72   85.90     0.002000       0.9394    1.7867    0.5970
 -154.22   89.14   96.42     0.002000       1.0003    4.5478    0.2128
 -153.74   90.79   91.30     0.002000       1.3155    2.0922    0.3627
 -150.45   98.18   87.68     0.002000       0.8177    2.4223    0.5074
 -154.37   89.74   82.35     0.002000       1.0004    4.5226    0.2137
 -155.44   89.55   86.33     0.002000       1.2602    2.1268    0.3720
 -154.51   91.96  102.49     0.002000       1.3580    2.2017    0.3326
 -152.89   97.58  109.20     0.002000       1.0371    3.5212    0.2687
 -153.54  107.74  104.77     0.002000       0.9968    2.1584    0.4633
 -151.92  115.30  100.72     0.002000       1.0161    3.1058    0.3127
 -157.40  101.42   95.26     0.002000       0.8040    2.1602    0.5753
 -153.41   87.26   88.35     0.002000       1.0822    1.6928    0.5478
 -152.52   93.21   93.49     0.002000       1.2049    2.0995    0.3956
 -154.37   78.54   95.30     0.002000       1.0011    4.2944    0.2263
 -154.76   83.95   86.39     0.002000       0.9033    2.4336    0.4545
 -153.63  102.57   96.66     0.002000       1.0028    4.1337    0.2345
 -154.39   84.01   94.60     0.002000       1.0004    4.5218    0.2141
 -154.06   88.22  112.81     0.002000       1.0651    3.4820    0.2648
 -154.22   88.47  118.31     0.002000       1.2640    2.8781    0.2711
 -154.58   91.41   98.22     0.002000       1.3266    2.2424    0.3345
 -152.73   96.51  110.75     0.002000       1.0522    3.4350    0.2719
 -153.17   92.90  104.02     0.002000       1.3545    2.1556    0.3413
 -153.66   76.03   87.60     0.002000       1.0013    4.2270    0.2299
 -154.94   77.15  102.02     0.002000       1.0044    3.9188    0.2486
 -155.84   91.37   98.53     0.002000       1.2724    2.1504    0.3639
 -154.18   87.66   88.52     0.002000       1.0000    4.6645    0.2071
 -154.23   91.53   99.95     0.002000       1.2549    2.2100    0.3596
 -151.96   92.56   90.87     0.002000       1.2106    2.0559    0.4025
 -157.37   80.43   88.91     0.002000       0.8071    2.3714    0.5217
 -151.42  101.32  108.29     0.002000       1.2108    1.8955    0.4360
 -150.21   84.40   83.07     0.002000       1.1030    1.7205    0.5298
 -154.21   92.23  109.21     0.002000       1.0098    3.6965    0.2621
 -154.81   73.44   97.46     0.002000       1.0020    3.9175    0.2490
 -140.85   86.93   96.33     0.002000       0.9286    1.6679    0.6534
 -151.60  110.75  108.28     0.002000       1.0421    2.6487    0.3592
 -154.49   93.09   94.98     0.002000       1.1915    2.2219    0.3770
 -152.53   80.89   71.62     0.002000       1.0259    3.5947    0.2660
 -157.51  111.18   71.00     0.002000       1.0124    3.0939    0.3152
 -150.05   93.56   92.65     0.002000       0.9626    2.1772    0.4801
 -151.03  114.23   75.31     0.002000       0.7906    1.9059    0.6694
 -149.42   94.00   91.09     0.002000       1.1278    1.8564    0.4802
 -151.68   99.14   97.82     0.002000       0.9260    2.3542    0.4600
 -150.91   92.05   91.75     0.002000       1.1838    2.0162    0.4202
 -154.97   89.21  104.54     0.002000       1.4314    2.2111    0.3137
 -154.34   92.26   60.52     0.002000       1.2214    2.9797    0.2707
 -155.83   91.04   91.75     0.002000       1.0174    1.7449    0.5644
 -155.56   92.34   92.43     0.002000       1.1918    2.1962    0.3809
 -153.08   73.20   83.87     0.002000       1.0041    3.9480    0.2464
 -154.98   92.04   64.69     0.002000       1.4431    2.3232    0.2955
 -152.17   97.34  108.78     0.002000       1.3451    1.9915    0.3726
 -153.74   89.17   83.73     0.002000       1.2083    2.1012    0.3940
 -152.74   86.02   67.72     0.002000       1.0418    3.6106    0.2610
 -155.19  122.00   88.15     0.002000       0.7510    2.7389    0.4848
 -157.34   49.68  109.89     0.002000       0.9368    1.9975    0.5374
 -154.66  105.36  100.20     0.002000       0.9080    2.0011    0.5505
 -156.24   97.82   94.85     0.002000       1.4125    1.9812    0.3557
 -155.54   94.27   61.53     0.002000       1.4470    2.3185    0.2951
 -150.17   98.16   97.37     0.002000       0.8313    2.4144    0.5004
 -156.39  109.93   70.90     0.002000       1.0495    3.2509    0.2891
 -152.50   75.69   74.20     0.002000       1.0204    1.8702    0.5248
 -151.95  112.78  103.95     0.002000       1.0228    2.9952    0.3223
 -153.61   79.96   82.11     0.002000       1.0013    4.2070    0.2308
 -150.06   91.69   89.70     0.002000       1.1186    1.7798    0.5049
 -151.64   51.30   86.41     0.002000       0.8499    2.7963    0.4188
 -155.80  116.77   78.71     0.002000       0.7404    2.4792    0.5461
 -152.88   79.53   74.18     0.002000       1.0154    3.7135    0.2595
 -153.64  122.67   89.95     0.002000       0.9877    3.0328    0.3302
 -145.00   88.48   88.17     0.002000       0.9989    2.0672    0.4895
 -152.71   82.35   62.50     0.002000       1.1775    2.8236    0.2970
 -151.95  102.79  114.05     0.002000       1.1813    2.1577    0.3910
 -154.09   87.94  103.19     0.002000       1.0012    4.2365    0.2296
 -149.85   86.49   84.45     0.002000       1.1370    1.8689    0.4729
 -156.94   85.70   86.00     0.002000       0.8526    2.3068    0.5077
 -156.24   87.83   94.20     0.002000       0.9813    1.7465    0.5848
 -157.48  121.32   73.40     0.002000       1.0223    2.6893    0.3615
 -152.30   76.01   64.10     0.002000       1.1447    2.4857    0.3487
 -149.53   76.50  102.17     0.002000       0.7904    2.2201    0.5743
 -158.00  128.25   70.15     0.002000       0.8800    2.2553    0.5059
 -153.35   89.78   92.43     0.002000       1.2348    2.1224    0.3816
 -167.42   95.16   92.29     0.002000       0.9598    1.3465    0.7788
 -153.55  105.89  105.67     0.002000       1.0284    2.1252    0.4561
 -155.11   75.14  103.24     0.002000       1.0095    3.8226    0.2539
 -156.69  109.09   68.64     0.002000       1.0851    3.0535    0.2982
 -152.69   96.17  100.85     0.002000       1.3242    1.9720    0.3824
 -153.60   70.48   87.58     0.002000       1.0029    3.7575    0.2598
 -152.98   85.83   77.51     0.002000       1.0859    1.7606    0.5246
 -154.04   87.53   78.93     0.002000       1.2659    2.2027    0.3577
 -154.80   89.14  103.21     0.002000       1.3729    2.2670    0.3193
 -140.86   85.61   82.24     0.002000       1.0242    1.7321    0.5705
 -153.90   90.33   90.06     0.002000       1.0669    1.6712    0.5628
 -144.11   99.79  102.37     0.002000       0.9492    1.9072    0.5580
 -151.36   77.39   63.66     0.002000       1.1815    2.3410    0.3597
 -156.09   91.03   99.34     0.002000       1.3172    2.1143    0.3573
 -154.60   95.71   90.86     0.002000       0.7752    2.4303    0.5311
 -155.28   98.02   91.16     0.002000       0.7864    2.4746    0.5133
 -147.33   84.36   81.19     0.002000       1.0249    2.0469    0.4807
 -155.29  102.02   73.56     0.002000       1.0097    3.7560    0.2583
 -152.35   56.06   85.75     0.002000       0.9636    2.9105    0.3535
 -152.46  103.41  103.82     0.002000       1.0210    3.7250    0.2575
 -154.40   90.06   86.92     0.002000       1.2809    2.0633    0.3778
 -152.56   90.50   87.12     0.002000       1.2050    2.1057    0.3945
 -151.84  106.87  110.41     0.002000       1.0830    2.0782    0.4437
 -156.02   81.90  114.65     0.002000       1.4178    2.4508    0.2846
 -155.95   95.64   92.81     0.002000       0.8750    2.4805    0.4596
 -152.17   64.96   73.75     0.002000       0.9822    2.6669    0.3785
 -148.43   99.03   96.10     0.002000       0.8878    2.1301    0.5327
 -154.96  108.08   98.04     0.002000       0.8462    2.1819    0.5410
 -154.71   95.95   71.63     0.002000       1.0061    3.8684    0.2513
 -154.11   81.66   92.32     0.002000       1.0005    4.5734    0.2118
 -161.44   81.07   89.01     0.002000       0.9641    1.2566    0.8321
 -156.96   85.26   94.39     0.002000       1.4112    2.1396    0.3285
 -154.29   91.60   99.64     0.002000       1.2033    2.1775    0.3812
 -154.68   82.77  101.72     0.002000       1.0014    4.1716    0.2331
 -153.11   96.52  104.93     0.002000       1.0056    4.0117    0.2420
 -149.90   90.89   90.47     0.002000       0.9998    2.3417    0.4295
 -153.99   53.70   94.66     0.002000       0.9679    2.8405    0.3615
 -154.11   89.43   92.11     0.002000       1.3068    2.0352    0.3757
 -154.37   88.62   78.96     0.002000       1.2719    2.1991    0.3563
 -151.47   76.00   65.20     0.002000       1.1583    2.1663    0.3974
 -153.51   81.26   88.29     0.002000       0.7755    2.4760    0.5214
 -158.15   83.38   89.51     0.002000       1.3268    2.0692    0.3619
 -154.65   91.31   58.45     0.002000       1.2748    2.8218    0.2739
 -158.05   96.78   94.83     0.002000       1.0591    2.1613    0.4356
 -153.76   67.86   77.49     0.002000       0.9283    2.2536    0.4764
 -152.93  125.99   85.99     0.002000       0.7540    2.5409    0.5232
 -156.72   91.73   81.37     0.002000       1.2693    2.2384    0.3497
 -155.51   85.02  115.87     0.002000       1.4384    2.4059    0.2858
 -153.90   91.39   92.79     0.002000       1.3921    2.0317    0.3526
 -155.55   92.47   95.73     0.002000       0.9749    1.7248    0.5966
 -151.18   87.36   88.62     0.002000       1.1211    1.7347    0.5166
 -154.11   90.28   96.43     0.002000       1.2275    2.0941    0.3889
 -152.86  107.23  105.63     0.002000       1.0156    1.9353    0.5091
 -154.85   88.70  109.78     0.002000       1.4420    2.2806    0.3016
 -156.90   72.93  113.80     0.002000       1.1739    2.7611    0.3054
 -158.72   85.24   89.88     0.002000       0.9888    1.2351    0.8256
 -154.46   90.65   85.66     0.002000       1.1776    2.3702    0.3570
 -152.08   83.31   85.72     0.002000       0.8545    2.3483    0.4999
 -154.33   94.21   77.53     0.002000       1.0012    4.2602    0.2281
 -153.84   96.93   95.80     0.002000       1.0004    4.4504    0.2177
 -153.40  114.84   95.05     0.002000       1.0062    3.3325    0.2932
 -154.96  129.64   86.89     0.002000       0.8819    2.6649    0.4237
 -155.32  110.54   82.55     0.002000       1.0025    3.6346    0.2690
 -152.35  101.36  114.00     0.002000       1.1909    2.2204    0.3764
 -151.84   96.33   95.23     0.002000       1.0788    1.6674    0.5586
 -139.63   96.02  102.30     0.002000       0.9818    1.6433    0.6273
 -154.06   92.55   99.29     0.002000       1.2235    2.1573    0.3784
 -156.84   83.23   83.60     0.002000       0.9235    1.7668    0.6145
 -155.22  100.21   69.96     0.002000       1.0276    3.6217    0.2637
 -150.03   99.70   94.59     0.002000       0.7956    2.2637    0.5583
 -153.90   72.19   88.40     0.002000       1.0022    3.8492    0.2533
 -157.86   63.34  112.45     0.002000       1.0836    2.5225    0.3642
 -160.28  123.78   70.68     0.002000       0.9290    2.5079    0.4282
 -152.25  105.44  106.29     0.002000       1.0442    3.2723    0.2879
 -154.95   78.83  103.50     0.002000       1.0051    3.9091    0.2490
 -151.89   91.55   81.99     0.002000       1.0402    1.5931    0.6068
 -154.03   92.06   94.70     0.002000       1.0001    4.7009    0.2055
 -154.40   96.68   89.03     0.002000       0.9848    1.2254    0.8361
 -151.72   98.85   96.46     0.002000       1.1524    1.7183    0.5068
 -153.17   82.30   75.01     0.002000       1.0055    3.9260    0.2473
 -150.66   83.28   85.58     0.002000       1.1466    1.7418    0.5029
 -151.70   98.36  102.52     0.002000       1.0833    1.7722    0.5227
 -154.27  112.92   88.77     0.002000       1.0028    3.6147    0.2704
 -150.61   92.52   88.41     0.002000       1.1108    1.6799    0.5387
 -151.45   93.92  100.10     0.002000       1.1474    1.7756    0.4925
 -155.09   84.14  118.16     0.002000       1.3327    2.7415    0.2702
 -153.99   89.27   83.77     0.002000       1.2240    2.1268    0.3839
 -153.25   91.09   96.84     0.002000       1.2748    2.2399    0.3496
 -154.76   90.59  100.51     0.002000       1.2780    2.2578    0.3451
 -153.89   87.38   82.11     0.002000       1.2517    2.1425    0.3723
 -152.73  116.54   97.52     0.002000       1.0084    3.1379    0.3116
 -154.56   90.54   89.60     0.002000       1.0579    1.6807    0.5642
 -159.31   89.32   88.49     0.002000       1.0734    2.1731    0.4267
 -153.33   86.82   84.54     0.002000       1.2268    2.1210    0.3842
 -154.13   91.27   82.33     0.002000       1.0004    4.5462    0.2130
 -154.94   89.81   99.30     0.002000       1.3377    2.2614    0.3287
 -153.15   85.61   69.54     0.002000       1.0221    3.6347    0.2639
 -152.10   86.03   91.23     0.002000       1.0873    1.6335    0.5657
 -153.97   90.15   82.26     0.002000       1.2338    2.1340    0.3793
 -153.27   95.56   94.27     0.002000       0.9679    2.4421    0.4231
 -155.37   95.71   91.07     0.002000       0.8559    2.4427    0.4779
 -157.47   98.93   85.72     0.002000       0.9514    1.7640    0.5971
 -150.85   87.83   80.91     0.002000       1.0542    1.6555    0.5763
 -150.38   58.51   77.59     0.002000       0.9338    2.6860    0.3963
 -152.62   94.92  112.84     0.002000       1.0805    3.4034    0.2674
 -154.73   78.64   98.36     0.002000       1.0014    4.1181    0.2363
 -153.27   89.85   81.96     0.002000       1.2750    2.1311    0.3679
 -158.88   83.47  101.42     0.002000       1.3804    1.9373    0.3718
 -157.85   91.57   91.27     0.002000       0.8381    2.4429    0.4868
 -156.32  118.11   75.96     0.002000       1.0149    3.0362    0.3213
 -152.99   71.36   91.26     0.002000       0.7123    2.4394    0.5769
 -159.95   57.89  113.74     0.002000       1.0492    1.5374    0.6243
 -147.54   94.94   95.70     0.002000       0.9794    2.2125    0.4653
 -155.79   89.77   92.27     0.002000       1.2489    2.3384    0.3402
 -149.06   87.74   80.32     0.002000       0.7401    2.1830    0.6228
 -154.82   89.90   78.37     0.002000       1.3113    2.2581    0.3360
 -152.21   82.98   60.99     0.002000       1.2447    2.6090    0.3051
 -154.39   84.78  113.88     0.002000       1.0898    3.5056    0.2572
 -155.39   58.46   97.88     0.002000       1.0004    2.9073    0.3408
 -153.56   94.93   92.87     0.002000       1.1050    1.7135    0.5297
 -151.66  100.28  114.80     0.002000       1.1486    2.7931    0.3085
 -156.11   86.87   84.06     0.002000       1.1745    2.3166    0.3656
 -155.31   98.28   92.29     0.002000       0.7451    2.4630    0.5443
 -142.08   94.51   94.34     0.002000       1.0118    1.8311    0.5462
 -154.88   83.92  114.48     0.002000       1.1170    3.3048    0.2665
 -154.62   85.66  118.52     0.002000       1.2649    2.9385    0.2653
 -153.15   65.17   86.58     0.002000       1.0039    3.4086    0.2875
 -154.54   89.46   58.37     0.002000       1.2599    2.6801    0.2924
 -154.27   86.97  107.99     0.002000       1.0083    3.8540    0.2518
 -154.10   73.94   90.89     0.002000       1.0015    4.0114    0.2429
 -152.61   92.82   85.83     0.002000       1.0353    1.5484    0.6273
 -156.29   91.11   96.14     0.002000       1.1953    2.1987    0.3790
 -155.18   91.99   99.79     0.002000       1.2493    2.1753    0.3667
 -151.61   75.75   70.48     0.002000       1.0597    3.1723    0.2933
 -153.04   62.87   88.31     0.002000       0.7272    2.6500    0.5185
 -141.90   90.62   96.37     0.002000       0.9296    1.7296    0.6293
 -153.83   49.27  100.05     0.002000       0.8320    2.3664    0.5100
 -154.01   93.74  119.42     0.002000       1.3311    2.5711    0.2888
 -152.25   50.73   87.55     0.002000       0.8620    2.7087    0.4266
