MORPHOLOGY AT STRAIN =    1.0000  FOR PHASE  1
   1.071   2.295   0.407  <-- AXES OF PHASE ELLIPSOID
 -154.20   90.08   90.01  <-- EULER ANGLES OF PHASE ELLIPSOID (deg)
   1.097   2.452   0.397  <-- AVERAGE OF GRAIN AXES FOR PHASE
   0.158   0.224   0.264  <-- STANDARD DEV OF AVG GRAIN AXES FOR PHASE
B       500
 -164.02  123.18   60.18     0.002000       1.0505    1.9933    0.4789
 -153.26  110.96  100.83     0.002000       1.0529    2.9598    0.3174
 -154.73   92.83  108.46     0.002000       1.0789    3.1419    0.2913
 -154.11   90.39   87.80     0.002000       1.3335    2.1034    0.3554
 -153.87   92.36   99.21     0.002000       1.2564    2.2467    0.3531
 -154.96   86.25   87.14     0.002000       1.0003    3.7594    0.2610
 -149.99   88.35   87.48     0.002000       1.1820    1.8577    0.4566
 -154.23   77.72   82.24     0.002000       1.0265    3.4454    0.2784
 -154.82   88.91   81.02     0.002000       1.3344    2.3222    0.3204
 -157.62   67.96  107.62     0.002000       1.0368    2.8819    0.3327
 -155.18   89.63  104.24     0.002000       1.0075    3.4230    0.2858
 -155.14   95.26   90.60     0.002000       1.0003    3.7543    0.2613
 -155.38   84.66   82.20     0.002000       0.9380    2.0251    0.5261
 -153.23  100.90  102.17     0.002000       1.1323    1.8163    0.4862
 -155.72  101.44   94.02     0.002000       0.7489    2.4732    0.5388
 -144.98   85.92   82.72     0.002000       1.0485    1.7910    0.5388
 -155.13   85.06   96.79     0.002000       1.0004    3.7096    0.2647
 -159.84   51.82  106.35     0.002000       0.7718    2.3310    0.5585
 -151.52   91.68  100.43     0.002000       0.7167    2.4546    0.5704
 -156.40  108.67   81.75     0.002000       1.0019    3.3233    0.2965
 -152.78   70.89   77.53     0.002000       0.9302    2.2544    0.4754
 -152.70  104.61  104.92     0.002000       1.1075    3.0195    0.2957
 -155.68   97.01   84.30     0.002000       1.0005    3.6643    0.2679
 -154.26   96.70  106.96     0.002000       1.1007    3.1044    0.2888
 -153.49   90.49   91.08     0.002000       1.2685    2.2191    0.3544
 -162.85  108.85  100.03     0.002000       1.1864    1.5800    0.5351
 -156.06   92.69   94.50     0.002000       1.2060    2.3584    0.3492
 -153.93   87.74   74.54     0.002000       1.3950    2.2914    0.3105
 -142.61   87.28   82.31     0.002000       1.0099    1.8268    0.5490
 -156.31   91.81  110.33     0.002000       1.3991    2.2651    0.3124
 -155.75   92.83   93.40     0.002000       1.1980    2.3067    0.3599
 -152.70   78.75   68.16     0.002000       1.2175    2.4872    0.3276
 -153.73   85.00   74.91     0.002000       1.4016    2.1399    0.3315
 -144.74   82.87   72.22     0.002000       0.9805    1.9045    0.5418
 -155.01   88.64  112.23     0.002000       1.4306    2.4096    0.2871
 -151.95   74.75   71.68     0.002000       1.1133    1.9958    0.4496
 -153.14  102.58  107.77     0.002000       1.1459    2.8118    0.3071
 -154.77  127.82   88.13     0.002000       0.7985    2.7924    0.4474
 -156.12   83.86   87.85     0.002000       0.8384    2.4612    0.4833
 -153.35   84.09   84.40     0.002000       1.1291    1.7406    0.5093
 -155.23   56.94   89.18     0.002000       0.8955    2.9865    0.3708
 -156.09   83.26   83.84     0.002000       1.2297    2.2788    0.3547
 -153.82   92.04   96.39     0.002000       1.2796    2.2324    0.3487
 -156.11   95.74   68.85     0.002000       1.4376    2.3605    0.2916
 -154.44   92.34   99.07     0.002000       1.4014    2.1866    0.3243
 -152.99   86.89   94.08     0.002000       1.1191    1.6414    0.5459
 -159.46  121.76   74.73     0.002000       0.9797    2.7608    0.3680
 -153.56   93.36   96.63     0.002000       1.2678    2.2663    0.3469
 -154.80   90.56   69.33     0.002000       1.4401    2.3486    0.2928
 -156.33   99.32   66.13     0.002000       1.2014    2.7598    0.2987
 -156.35  101.44   77.82     0.002000       1.0018    3.4064    0.2889
 -155.20   91.11   94.96     0.002000       1.2235    2.4185    0.3356
 -154.50  102.64  100.28     0.002000       1.0717    1.9061    0.4888
 -154.52   84.75   76.49     0.002000       1.0308    3.3850    0.2824
 -156.30   56.60   95.78     0.002000       0.7772    2.8063    0.4575
 -148.34   98.48  103.79     0.002000       0.7575    2.2247    0.5972
 -150.81   79.34   79.99     0.002000       0.8681    2.3748    0.4866
 -153.68   84.55   66.11     0.002000       1.2717    2.5893    0.3007
 -155.43   92.17   87.26     0.002000       1.0001    3.7607    0.2608
 -156.96   96.67   85.65     0.002000       0.9582    1.8716    0.5579
 -155.24   90.95   97.09     0.002000       1.0005    3.6764    0.2670
 -153.78   91.03   92.43     0.002000       1.3216    2.1950    0.3434
 -150.62   94.20   87.60     0.002000       0.8317    2.4638    0.4904
 -155.87   87.31   81.83     0.002000       1.0012    3.5874    0.2730
 -154.91   89.31   86.26     0.002000       1.3007    2.2086    0.3464
 -154.48   92.26   99.69     0.002000       1.3505    2.2670    0.3243
 -154.00   98.16  107.43     0.002000       1.1214    3.0156    0.2921
 -153.60  107.45  102.95     0.002000       1.0212    2.2172    0.4396
 -152.87  114.05   98.92     0.002000       1.0368    2.9995    0.3184
 -156.21  101.48   96.10     0.002000       0.8332    2.1943    0.5461
 -153.41   87.71   88.14     0.002000       1.1192    1.7156    0.5216
 -152.63   92.68   93.66     0.002000       1.2354    2.1803    0.3707
 -155.39   81.39   98.10     0.002000       1.0008    3.6052    0.2728
 -154.18   85.62   86.25     0.002000       0.9645    2.4786    0.4175
 -155.12  102.41   94.15     0.002000       1.0152    3.5599    0.2718
 -155.48   86.10   96.44     0.002000       1.0003    3.6855    0.2664
 -154.74   91.01  112.67     0.002000       1.1914    2.8568    0.2906
 -154.63   90.88  113.38     0.002000       1.3705    2.5230    0.2861
 -154.20   91.69   97.92     0.002000       1.3269    2.3313    0.3211
 -153.83   97.26  108.93     0.002000       1.1426    2.9423    0.2940
 -153.27   93.40  101.62     0.002000       1.3431    2.2190    0.3337
 -154.73   77.57   90.14     0.002000       1.0024    3.6378    0.2697
 -155.87   81.24  105.43     0.002000       1.0138    3.3176    0.2937
 -155.37   91.66   98.01     0.002000       1.3050    2.2170    0.3437
 -155.32   87.60   89.06     0.002000       1.0001    3.7651    0.2605
 -154.10   91.33   99.56     0.002000       1.2715    2.2810    0.3432
 -152.28   92.29   90.59     0.002000       1.2467    2.1404    0.3744
 -157.24   82.16   88.00     0.002000       0.8653    2.4672    0.4667
 -151.24  100.74  105.82     0.002000       1.2073    1.9181    0.4320
 -150.49   84.97   80.62     0.002000       1.1355    1.7479    0.5059
 -154.85   93.45  109.27     0.002000       1.0956    3.0251    0.2981
 -156.14   77.14  101.07     0.002000       1.0018    3.4362    0.2865
 -142.32   92.06   95.95     0.002000       1.0084    1.5678    0.6411
 -152.17  111.09  106.01     0.002000       1.0731    2.5635    0.3610
 -154.05   92.56   94.63     0.002000       1.2454    2.2897    0.3493
 -153.48   80.35   73.40     0.002000       1.1035    3.0695    0.2917
 -159.40  107.66   66.38     0.002000       1.0177    2.7794    0.3510
 -150.13   93.43   94.13     0.002000       1.0334    2.1908    0.4441
 -148.19   94.02   72.10     0.002000       0.8029    1.8884    0.6658
 -149.84   93.39   91.62     0.002000       1.1692    1.8952    0.4529
 -151.49   97.91   99.70     0.002000       0.9533    2.3937    0.4392
 -151.28   91.83   92.03     0.002000       1.2225    2.0836    0.3927
 -154.73   90.19  100.64     0.002000       1.4102    2.2877    0.3074
 -154.54   89.56   64.87     0.002000       1.3438    2.5352    0.2905
 -155.65   91.09   91.93     0.002000       1.0471    1.8306    0.5217
 -155.10   91.75   91.49     0.002000       1.2490    2.2716    0.3507
 -154.09   74.40   86.30     0.002000       1.0131    3.5006    0.2777
 -154.84   90.40   73.18     0.002000       1.4385    2.3010    0.2994
 -151.98   97.61  103.22     0.002000       1.3285    2.0292    0.3702
 -153.76   89.42   84.32     0.002000       1.2526    2.1756    0.3662
 -153.80   84.93   69.14     0.002000       1.1440    2.9764    0.2902
 -155.56  120.21   87.46     0.002000       0.7449    2.8090    0.4764
 -161.68   52.44  113.82     0.002000       0.8918    2.0003    0.5641
 -154.02  102.29  100.23     0.002000       0.9510    2.1036    0.4990
 -156.66   97.34   96.18     0.002000       1.4282    1.9720    0.3532
 -155.31   92.08   70.07     0.002000       1.4735    2.2461    0.2993
 -150.10   97.53   98.58     0.002000       0.8708    2.4499    0.4706
 -157.21  103.61   67.14     0.002000       1.1136    2.8381    0.3137
 -152.66   78.94   74.15     0.002000       1.0305    1.9293    0.5032
 -152.71  112.51  101.99     0.002000       1.0538    2.8650    0.3281
 -154.58   79.61   83.83     0.002000       1.0130    3.5495    0.2735
 -150.14   90.93   90.26     0.002000       1.1592    1.7983    0.4811
 -153.06   54.92   87.59     0.002000       0.8461    2.9034    0.4053
 -155.22  106.91   77.15     0.002000       0.7269    2.5198    0.5474
 -153.71   79.09   75.88     0.002000       1.0779    3.1723    0.2886
 -155.03  119.80   88.20     0.002000       0.9821    3.0603    0.3299
 -145.39   88.83   87.89     0.002000       1.0005    2.0542    0.4920
 -153.60   80.26   67.39     0.002000       1.2447    2.4364    0.3269
 -151.78  102.37  109.72     0.002000       1.2031    2.0851    0.3977
 -154.75   90.72  104.53     0.002000       1.0138    3.4230    0.2842
 -150.13   86.96   83.60     0.002000       1.1752    1.9039    0.4484
 -156.79   86.37   86.00     0.002000       0.8823    2.3728    0.4763
 -156.01   88.12   95.05     0.002000       1.0130    1.8402    0.5366
 -159.92  117.96   69.91     0.002000       1.0211    2.6438    0.3690
 -152.20   75.89   68.77     0.002000       1.1808    2.2407    0.3761
 -150.04   77.24  103.26     0.002000       0.7922    2.2237    0.5723
 -160.19  126.40   68.08     0.002000       0.8505    2.2590    0.5233
 -153.51   89.87   92.79     0.002000       1.2714    2.2045    0.3558
 -164.73   95.25   77.82     0.002000       1.0026    1.1853    0.8499
 -153.62  106.23  103.80     0.002000       1.0486    2.1757    0.4364
 -156.03   79.80  106.82     0.002000       1.0289    3.2543    0.2952
 -157.17  102.16   65.47     0.002000       1.1854    2.6727    0.3130
 -152.48   96.05   96.95     0.002000       1.3237    2.0233    0.3724
 -154.82   72.38   90.41     0.002000       1.0038    3.4369    0.2859
 -153.08   85.49   75.89     0.002000       1.1188    1.8144    0.4930
 -153.74   87.84   79.50     0.002000       1.2850    2.2649    0.3421
 -154.63   89.95  100.77     0.002000       1.3496    2.3465    0.3134
 -142.66   87.89   79.23     0.002000       1.0736    1.6880    0.5591
 -154.01   90.24   90.20     0.002000       1.1007    1.6982    0.5358
 -145.57   97.80  106.52     0.002000       1.0002    1.8934    0.5340
 -151.44   76.69   68.11     0.002000       1.2059    2.2004    0.3755
 -155.64   91.58   98.45     0.002000       1.3360    2.1845    0.3405
 -154.27   97.83   92.26     0.002000       0.8218    2.5334    0.4799
 -155.08   95.66   91.55     0.002000       0.7856    2.5689    0.4945
 -147.96   85.81   79.37     0.002000       1.0822    2.0247    0.4603
 -156.01   96.97   69.81     0.002000       1.0484    3.1081    0.3036
 -153.58   58.78   87.31     0.002000       0.9494    2.9602    0.3534
 -153.35  103.16  101.80     0.002000       1.0706    3.2604    0.2826
 -154.35   90.08   86.64     0.002000       1.3109    2.1497    0.3536
 -152.88   90.54   87.80     0.002000       1.2459    2.1944    0.3650
 -151.90  104.92  107.80     0.002000       1.0894    2.0635    0.4443
 -155.83   85.24  107.21     0.002000       1.4540    2.3663    0.2874
 -155.41   95.41   93.76     0.002000       0.9156    2.5339    0.4295
 -152.53   64.59   76.13     0.002000       0.9840    2.5198    0.4007
 -148.78   98.26   98.92     0.002000       0.9446    2.1558    0.4946
 -154.03  107.96   98.25     0.002000       0.8843    2.2595    0.4992
 -155.16   91.64   69.04     0.002000       1.0631    3.0975    0.3002
 -155.09   83.54   94.40     0.002000       1.0004    3.7389    0.2626
 -146.89   89.04   87.26     0.002000       1.0470    1.2006    0.8056
 -156.91   86.87   94.16     0.002000       1.4222    2.2186    0.3138
 -154.10   91.21   99.26     0.002000       1.2435    2.2382    0.3581
 -155.54   86.27  104.29     0.002000       1.0054    3.4194    0.2868
 -153.96   97.17  103.92     0.002000       1.0612    3.3277    0.2792
 -149.82   90.66   90.60     0.002000       1.0002    2.3789    0.4225
 -155.58   56.84   96.14     0.002000       0.9537    2.9303    0.3562
 -153.89   89.09   91.11     0.002000       1.3414    2.1070    0.3528
 -154.24   88.85   80.61     0.002000       1.2875    2.2679    0.3407
 -151.40   76.69   69.29     0.002000       1.1767    2.0937    0.4051
 -153.92   84.31   88.01     0.002000       0.7910    2.5555    0.4945
 -158.58   84.54   91.60     0.002000       1.3657    2.1131    0.3437
 -155.87   87.88   63.51     0.002000       1.3402    2.4632    0.2994
 -158.45   95.16   93.37     0.002000       1.1203    2.1838    0.4069
 -153.66   68.28   79.20     0.002000       0.9427    2.2912    0.4610
 -154.07  122.79   85.20     0.002000       0.7310    2.6366    0.5198
 -156.42   90.67   81.14     0.002000       1.2835    2.3123    0.3342
 -155.29   87.93  107.89     0.002000       1.4715    2.3190    0.2901
 -153.84   91.98   92.83     0.002000       1.3754    2.1554    0.3358
 -155.48   91.18   97.34     0.002000       1.0049    1.8032    0.5526
 -151.03   88.14   88.16     0.002000       1.1581    1.7511    0.4943
 -153.90   90.12   96.37     0.002000       1.2718    2.1624    0.3627
 -152.90  103.35  104.53     0.002000       1.0216    1.9732    0.4960
 -154.77   89.89  103.30     0.002000       1.4212    2.3173    0.3010
 -157.10   79.73  114.74     0.002000       1.3036    2.4797    0.3067
 -150.18   88.37   84.36     0.002000       1.0026    1.1831    0.8524
 -154.03   90.54   85.53     0.002000       1.2340    2.4242    0.3324
 -151.81   83.53   83.96     0.002000       0.9062    2.4081    0.4593
 -155.06   90.90   75.58     0.002000       1.0051    3.4326    0.2857
 -154.87   97.32   94.50     0.002000       1.0044    3.6695    0.2665
 -154.66  113.43   92.63     0.002000       1.0114    3.1961    0.3056
 -156.85  127.88   84.80     0.002000       0.8556    2.7894    0.4174
 -156.78  107.24   78.85     0.002000       1.0020    3.2983    0.2988
 -152.35  102.76  110.18     0.002000       1.2057    2.1417    0.3857
 -152.06   95.27   98.14     0.002000       1.1070    1.7043    0.5318
 -141.56   93.60  104.96     0.002000       0.9942    1.6131    0.6320
 -153.92   92.00   98.82     0.002000       1.2614    2.2191    0.3561
 -156.62   85.13   83.12     0.002000       0.9378    1.8208    0.5865
 -155.44   94.42   66.89     0.002000       1.1284    2.9350    0.2988
 -150.08  100.18   97.25     0.002000       0.8362    2.3380    0.5139
 -155.21   74.02   91.42     0.002000       1.0024    3.4751    0.2829
 -159.59   67.82  115.69     0.002000       1.0995    2.4322    0.3729
 -164.12  121.32   66.03     0.002000       0.8885    2.5012    0.4493
 -153.16  105.77  104.04     0.002000       1.0995    2.9764    0.3021
 -155.78   83.12  106.85     0.002000       1.0228    3.2688    0.2955
 -152.36   91.53   80.12     0.002000       1.0806    1.6039    0.5797
 -155.08   92.97   94.46     0.002000       1.0005    3.7645    0.2604
 -145.19   91.06   89.94     0.002000       1.0576    1.2176    0.7866
 -151.60   98.00   98.16     0.002000       1.1647    1.7533    0.4907
 -154.05   81.39   76.23     0.002000       1.0600    3.2800    0.2836
 -150.69   83.72   83.60     0.002000       1.1713    1.7702    0.4836
 -151.90   96.95  104.66     0.002000       1.1048    1.8263    0.4966
 -155.82  110.22   85.52     0.002000       1.0022    3.3769    0.2914
 -150.70   92.63   88.86     0.002000       1.1532    1.6821    0.5172
 -151.45   93.96  101.82     0.002000       1.1799    1.8131    0.4680
 -154.82   87.69  111.98     0.002000       1.4245    2.4602    0.2823
 -153.63   89.42   84.23     0.002000       1.2737    2.1933    0.3571
 -152.76   90.61   97.04     0.002000       1.3023    2.3050    0.3320
 -154.60   90.81   99.93     0.002000       1.2813    2.3333    0.3325
 -153.86   87.86   82.69     0.002000       1.2772    2.2146    0.3523
 -153.86  115.29   95.48     0.002000       1.0179    3.0540    0.3183
 -154.64   90.32   89.59     0.002000       1.0908    1.7183    0.5341
 -159.95   89.18   87.13     0.002000       1.1322    2.1661    0.4055
 -153.45   87.41   85.29     0.002000       1.2603    2.2006    0.3596
 -155.02   89.12   81.46     0.002000       1.0008    3.6482    0.2692
 -154.65   90.60   98.43     0.002000       1.3290    2.3501    0.3178
 -154.23   84.47   70.59     0.002000       1.1142    3.0142    0.2942
 -152.34   85.77   90.78     0.002000       1.1273    1.6352    0.5442
 -153.91   90.43   82.80     0.002000       1.2619    2.2195    0.3558
 -152.80   94.95   95.31     0.002000       0.9909    2.4883    0.4053
 -154.77   95.14   92.08     0.002000       0.9091    2.5125    0.4368
 -157.00   97.63   85.53     0.002000       0.9710    1.8463    0.5582
 -151.19   88.29   78.28     0.002000       1.0935    1.6778    0.5476
 -151.81   61.01   79.47     0.002000       0.9509    2.7181    0.3847
 -153.76   96.02  110.72     0.002000       1.1772    2.8895    0.2906
 -155.82   82.02  101.48     0.002000       1.0017    3.4783    0.2829
 -153.04   90.01   82.06     0.002000       1.3034    2.1851    0.3503
 -159.34   84.76  100.48     0.002000       1.3663    1.9978    0.3641
 -157.34   92.28   92.01     0.002000       0.8962    2.4887    0.4463
 -158.14  114.37   72.76     0.002000       1.0176    2.9014    0.3366
 -153.46   83.31   92.41     0.002000       0.7116    2.5454    0.5528
 -162.35   64.92  118.67     0.002000       0.9536    1.5421    0.6868
 -147.79   93.77   95.74     0.002000       0.9963    2.2190    0.4562
 -155.35   89.76   93.14     0.002000       1.2844    2.4143    0.3197
 -148.32   80.03   76.79     0.002000       0.7688    2.2346    0.5856
 -154.58   89.30   79.45     0.002000       1.3018    2.3347    0.3269
 -152.68   81.48   66.67     0.002000       1.2856    2.3405    0.3301
 -154.46   88.94  113.76     0.002000       1.2378    2.8242    0.2830
 -157.30   61.48  100.58     0.002000       0.9978    2.9230    0.3407
 -153.30   94.06   93.40     0.002000       1.1375    1.7368    0.5067
 -152.30  101.78  111.27     0.002000       1.2036    2.5273    0.3262
 -155.75   87.06   84.18     0.002000       1.2227    2.3686    0.3429
 -155.28   96.97   92.78     0.002000       0.7466    2.5489    0.5245
 -143.05   92.08   96.57     0.002000       1.0448    1.7832    0.5435
 -154.94   88.45  114.37     0.002000       1.2636    2.7183    0.2881
 -154.55   88.84  113.75     0.002000       1.3837    2.5329    0.2824
 -154.35   67.31   88.99     0.002000       1.0061    3.2616    0.3013
 -154.62   87.80   65.12     0.002000       1.3644    2.3583    0.3080
 -154.91   90.26  109.60     0.002000       1.0723    3.1272    0.2947
 -155.33   76.27   93.93     0.002000       1.0013    3.5424    0.2777
 -153.25   92.52   85.22     0.002000       1.0764    1.5440    0.6046
 -155.84   91.09   96.22     0.002000       1.2467    2.2648    0.3521
 -154.76   91.98   99.17     0.002000       1.2861    2.2326    0.3466
 -152.42   75.33   72.84     0.002000       1.1278    2.8567    0.3073
 -153.16   64.61   88.10     0.002000       0.7236    2.7409    0.5035
 -143.35   93.89   97.35     0.002000       1.0190    1.6456    0.6041
 -156.26   51.13  101.67     0.002000       0.7846    2.4406    0.5246
 -154.47   95.19  111.28     0.002000       1.3750    2.2776    0.3166
 -153.73   53.70   88.94     0.002000       0.8443    2.8316    0.4167
