MORPHOLOGY AT STRAIN =    0.0036  FOR PHASE  1
   0.999   1.003   0.998  <-- AXES OF PHASE ELLIPSOID
  180.00   89.99   90.00  <-- EULER ANGLES OF PHASE ELLIPSOID (deg)
   1.000   1.011   0.989  <-- AVERAGE OF GRAIN AXES FOR PHASE
   0.002   0.002   0.001  <-- STANDARD DEV OF AVG GRAIN AXES FOR PHASE
B      1148
  180.00   90.00  179.99     0.000000       1.0020    1.0115    0.9866
    0.01    0.00    0.00     0.000000       1.0014    1.0084    0.9903
  180.00   89.98   90.00     0.000000       0.9925    1.0197    0.9881
    3.80   48.14  142.07     0.000000       0.9995    1.0120    0.9886
 -179.99   90.36 -169.39     0.000145       1.0019    1.0117    0.9866
 -179.94   92.92 -172.40     0.000161       1.0019    1.0116    0.9866
 -179.94   93.38 -173.82     0.000850       1.0020    1.0116    0.9866
 -179.96   93.75 -175.43     0.000146       1.0020    1.0115    0.9866
 -179.92   91.07 -151.34     0.000338       1.0007    1.0127    0.9867
 -179.77   93.19 -152.03     0.000403       1.0008    1.0127    0.9867
 -179.65   95.21 -153.43     0.000062       1.0009    1.0125    0.9867
 -179.56   97.09 -155.56     0.000355       1.0011    1.0123    0.9867
 -179.53   98.77 -158.44     0.000441       1.0013    1.0121    0.9868
 -179.57  100.18 -162.10     0.000782       1.0015    1.0119    0.9868
 -179.65  101.29 -166.51     0.000271       1.0017    1.0116    0.9868
 -179.35   95.24 -138.90     0.000388       0.9992    1.0141    0.9869
 -179.01   98.60 -140.58     0.000432       0.9994    1.0138    0.9869
 -178.78  101.76 -143.20     0.000764       0.9998    1.0134    0.9870
 -178.71  104.61 -146.88     0.000633       1.0002    1.0129    0.9870
 -179.03  108.97 -158.12     0.000402       1.0012    1.0118    0.9871
 -178.69   97.13   51.30     0.000389       0.9975    1.0156    0.9871
 -178.00  101.80   49.54     0.000702       0.9978    1.0152    0.9872
 -177.56  106.30   46.73     0.000649       0.9983    1.0146    0.9873
 -178.08  116.88 -150.38     0.000440       1.0005    1.0120    0.9876
 -178.76  118.85 -160.39     0.000541       1.0013    1.0112    0.9876
 -177.75   98.68   59.84     0.000063       0.9959    1.0169    0.9874
 -176.56  104.62   58.12     0.000250       0.9962    1.0164    0.9876
 -175.81  110.59   55.29     0.000058       0.9967    1.0157    0.9878
 -177.95  127.89   25.12     0.000854       1.0008    1.0111    0.9882
 -178.80   93.11   68.10     0.000065       0.9945    1.0182    0.9876
 -176.51   99.57   67.42     0.000089       0.9946    1.0179    0.9878
    3.05   42.38  149.59     0.000806       1.0003    1.0109    0.9889
    1.04   40.75  168.46     0.000123       1.0014    1.0098    0.9889
 -178.30   92.92   74.85     0.000250       0.9935    1.0189    0.9879
    4.13   31.69  -35.22     0.000444       0.9998    1.0108    0.9895
    1.40   29.98  -13.82     0.000677       1.0013    1.0093    0.9895
 -177.83   92.15   81.12     0.000006       0.9928    1.0194    0.9881
 -173.52   97.10   80.86     0.000388       0.9928    1.0191    0.9884
 -169.43  104.45   80.25     0.000412       0.9927    1.0186    0.9889
    5.12   19.80  -39.04     0.000165       0.9994    1.0107    0.9901
    1.72   18.41  -15.73     0.001189       1.0011    1.0090    0.9900
 -177.53   90.79   87.08     0.000200       0.9925    1.0196    0.9882
   19.15   29.23   97.32     0.000182       0.9924    1.0167    0.9911
    5.78    6.77  -41.28     0.000021       0.9991    1.0106    0.9904
    1.97    6.22  -16.90     0.001447       1.0010    1.0088    0.9903
 -179.94   92.37 -171.23     0.000159       1.0019    1.0116    0.9866
 -179.94   92.92 -172.40     0.000795       1.0019    1.0116    0.9866
 -179.95   93.38 -173.82     0.000143       1.0020    1.0116    0.9866
 -179.92   91.07 -151.34     0.000408       1.0007    1.0127    0.9867
 -179.77   93.19 -152.03     0.000067       1.0008    1.0127    0.9867
 -179.64   95.21 -153.43     0.000416       1.0009    1.0125    0.9867
 -179.56   97.09 -155.56     0.000419       1.0011    1.0123    0.9867
 -179.54   98.77 -158.44     0.000260       1.0013    1.0121    0.9868
 -179.57  100.18 -162.09     0.000273       1.0015    1.0119    0.9868
 -179.78   91.76 -138.08     0.000466       0.9991    1.0142    0.9869
 -179.35   95.24 -138.90     0.000546       0.9992    1.0141    0.9869
 -179.00   98.60 -140.58     0.000651       0.9994    1.0138    0.9869
 -178.78  101.76 -143.21     0.000354       0.9998    1.0134    0.9870
 -178.81  107.05 -151.79     0.000392       1.0007    1.0124    0.9871
 -179.03  108.97 -158.12     0.000555       1.0012    1.0118    0.9871
 -179.55   92.38   52.15     0.000360       0.9973    1.0158    0.9871
 -178.69   97.12   51.30     0.000493       0.9975    1.0156    0.9871
 -178.00  101.80   49.54     0.000456       0.9978    1.0152    0.9872
 -178.08  116.88 -150.38     0.000629       1.0005    1.0120    0.9876
 -178.76  118.85 -160.39     0.000219       1.0013    1.0112    0.9876
 -177.75   98.68   59.84     0.000192       0.9959    1.0169    0.9874
 -176.79  125.22   36.74     0.000068       0.9997    1.0123    0.9882
 -177.94  127.89   25.12     0.000626       1.0008    1.0111    0.9882
 -178.80   93.12   68.10     0.000161       0.9945    1.0182    0.9876
 -176.51   99.58   67.42     0.000007       0.9946    1.0179    0.9878
    3.05   42.38  149.58     0.000486       1.0003    1.0109    0.9889
 -169.93  128.34   66.55     0.000111       0.9948    1.0161    0.9893
    4.13   31.69  -35.22     0.000295       0.9998    1.0108    0.9895
 -177.83   92.16   81.12     0.000338       0.9928    1.0194    0.9881
 -173.52   97.11   80.86     0.000381       0.9928    1.0191    0.9884
 -169.43  104.46   80.25     0.000463       0.9927    1.0186    0.9889
   14.19   44.38  105.51     0.000146       0.9935    1.0165    0.9902
    5.12   19.80  -39.04     0.000116       0.9994    1.0107    0.9901
    1.71   18.41  -15.72     0.000001       1.0011    1.0090    0.9900
 -177.53   90.80   87.08     0.000189       0.9925    1.0196    0.9882
    5.74    6.77  -41.23     0.000144       0.9991    1.0106    0.9904
    1.93    6.22  -16.86     0.000088       1.0010    1.0088    0.9903
 -179.95   91.74 -170.32     0.000155       1.0019    1.0116    0.9866
 -179.94   92.37 -171.23     0.000744       1.0019    1.0116    0.9866
 -179.95   92.92 -172.40     0.000141       1.0019    1.0116    0.9866
 -179.99   94.12 -179.07     0.000160       1.0020    1.0115    0.9866
 -179.92   91.07 -151.34     0.000070       1.0007    1.0127    0.9867
 -179.76   93.18 -152.04     0.000429       1.0008    1.0127    0.9867
 -179.64   95.21 -153.44     0.000402       1.0009    1.0125    0.9867
 -179.54   98.77 -158.44     0.000291       1.0013    1.0121    0.9868
 -179.58  100.19 -162.09     0.000157       1.0015    1.0119    0.9868
 -179.92  102.44 -177.15     0.000507       1.0020    1.0114    0.9868
 -179.77   91.75 -138.08     0.000587       0.9991    1.0142    0.9869
 -179.35   95.23 -138.90     0.000569       0.9992    1.0141    0.9869
 -179.00   98.60 -140.59     0.000072       0.9994    1.0138    0.9869
 -178.72  104.61 -146.88     0.000199       1.0002    1.0129    0.9870
 -178.81  107.05 -151.79     0.000574       1.0007    1.0124    0.9871
 -179.03  108.97 -158.12     0.000109       1.0012    1.0118    0.9871
 -179.77  110.97 -175.15     0.001149       1.0019    1.0111    0.9872
 -179.55   92.38   52.15     0.000318       0.9973    1.0158    0.9871
 -178.69   97.12   51.30     0.000456       0.9975    1.0156    0.9871
 -177.62  114.04   37.13     0.000062       0.9997    1.0130    0.9875
 -178.08  116.88 -150.38     0.000321       1.0005    1.0121    0.9876
 -179.56  119.85 -173.04     0.002138       1.0017    1.0107    0.9876
 -177.75   98.67   59.85     0.000003       0.9959    1.0169    0.9874
 -176.56  104.61   58.13     0.000018       0.9962    1.0164    0.9876
 -176.79  125.22   36.74     0.000138       0.9997    1.0123    0.9882
 -177.94  127.89   25.13     0.000443       1.0008    1.0111    0.9882
 -179.28  129.22    9.21     0.003654       1.0016    1.0103    0.9882
 -178.80   93.12   68.11     0.000146       0.9945    1.0182    0.9876
 -173.80  129.06   52.42     0.000085       0.9973    1.0141    0.9888
    4.84   45.74  136.66     0.000034       0.9988    1.0125    0.9889
    3.05   42.38  149.58     0.000972       1.0003    1.0109    0.9889
    1.05   40.76  168.45     0.005571       1.0014    1.0098    0.9889
 -172.18  107.15   73.21     0.000174       0.9936    1.0181    0.9885
    8.87   42.02  120.54     0.000208       0.9961    1.0145    0.9895
    6.71   35.48  130.64     0.000323       0.9979    1.0127    0.9896
    4.13   31.69  -35.21     0.001533       0.9998    1.0108    0.9895
    1.39   29.98  -13.82     0.008002       1.0013    1.0093    0.9895
 -177.84   92.18   81.11     0.000394       0.9928    1.0194    0.9881
 -173.52   97.13   80.86     0.000054       0.9928    1.0191    0.9884
 -166.32  117.26   78.74     0.000011       0.9928    1.0178    0.9897
   11.89   30.32  113.94     0.000060       0.9950    1.0148    0.9903
    8.56   23.18  125.59     0.000508       0.9971    1.0128    0.9902
    5.10   19.80  -39.02     0.001875       0.9994    1.0107    0.9901
    1.70   18.41  -15.70     0.010560       1.0011    1.0090    0.9900
 -177.53   90.82   87.08     0.000147       0.9925    1.0196    0.9882
 -162.01  106.84   86.55     0.000106       0.9919    1.0180    0.9903
   14.39   12.11  109.02     0.000287       0.9943    1.0150    0.9909
    9.78    8.21  122.51     0.000658       0.9966    1.0129    0.9906
    5.68    6.76  -41.16     0.002033       0.9991    1.0106    0.9904
    1.86    6.22  -16.79     0.012711       1.0010    1.0088    0.9903
 -179.96   91.06 -169.70     0.000152       1.0019    1.0117    0.9866
 -179.95   91.74 -170.32     0.000701       1.0019    1.0116    0.9866
 -179.95   92.37 -171.22     0.000140       1.0019    1.0116    0.9866
 -179.97   93.99 -177.20     0.000162       1.0020    1.0115    0.9866
 -179.98   94.12 -179.07     0.000959       1.0020    1.0115    0.9866
 -179.91   91.07 -151.34     0.000420       1.0007    1.0127    0.9867
 -179.76   93.18 -152.04     0.000384       1.0008    1.0127    0.9867
 -179.57   97.10 -155.56     0.000303       1.0011    1.0123    0.9867
 -179.55   98.77 -158.44     0.000326       1.0013    1.0121    0.9868
 -179.77  102.05 -171.59     0.000549       1.0019    1.0115    0.9868
 -179.91  102.44 -177.15     0.002815       1.0020    1.0114    0.9868
 -179.77   91.75 -138.08     0.000518       0.9991    1.0142    0.9869
 -178.72  104.61 -146.88     0.000329       1.0002    1.0129    0.9870
 -178.81  107.05 -151.79     0.000157       1.0007    1.0124    0.9871
 -179.03  108.97 -158.12     0.000175       1.0012    1.0118    0.9871
 -179.36  110.29 -165.98     0.001264       1.0016    1.0114    0.9871
 -179.77  110.97 -175.15     0.004569       1.0019    1.0111    0.9872
 -179.54   92.37   52.15     0.000401       0.9973    1.0158    0.9871
 -177.43  110.45   42.70     0.000104       0.9989    1.0138    0.9874
 -177.62  114.04   37.13     0.000231       0.9997    1.0130    0.9875
 -178.08  116.88 -150.38     0.000898       1.0005    1.0121    0.9876
 -178.75  118.85 -160.39     0.002068       1.0013    1.0112    0.9876
 -179.56  119.85 -173.04     0.006236       1.0017    1.0107    0.9876
 -175.61  116.29   51.06     0.000100       0.9975    1.0147    0.9879
 -175.96  121.28   45.07     0.000539       0.9985    1.0136    0.9881
 -176.78  125.22   36.74     0.001585       0.9997    1.0123    0.9882
 -177.94  127.89   25.13     0.002735       1.0008    1.0111    0.9882
 -179.29  129.22    9.21     0.008053       1.0016    1.0103    0.9883
 -173.43  114.39   63.19     0.000066       0.9953    1.0166    0.9883
 -173.15  122.19   58.85     0.000018       0.9961    1.0155    0.9886
 -173.80  129.05   52.42     0.001002       0.9973    1.0141    0.9888
    4.84   45.74  136.66     0.001955       0.9988    1.0125    0.9889
    3.05   42.38  149.58     0.002990       1.0003    1.0109    0.9889
    1.04   40.76  168.46     0.009874       1.0014    1.0098    0.9889
 -175.03   99.30   74.37     0.000307       0.9935    1.0187    0.9881
 -172.18  107.15   73.21     0.000114       0.9936    1.0181    0.9885
 -170.29  117.17   70.90     0.000314       0.9940    1.0173    0.9890
 -169.94  128.35   66.55     0.000013       0.9948    1.0161    0.9893
    8.87   42.02  120.55     0.000771       0.9961    1.0145    0.9895
    6.71   35.47  130.65     0.001812       0.9979    1.0127    0.9896
    4.12   31.68  -35.20     0.002644       0.9998    1.0108    0.9895
    1.38   29.98  -13.81     0.011943       1.0013    1.0093    0.9895
 -177.84   92.19   81.11     0.000150       0.9928    1.0194    0.9881
 -166.32  117.27   78.74     0.000373       0.9928    1.0178    0.9897
   14.19   44.36  105.51     0.000114       0.9935    1.0165    0.9902
   11.89   30.32  113.94     0.000634       0.9950    1.0148    0.9903
    8.55   23.18  125.61     0.001322       0.9971    1.0128    0.9902
    5.09   19.79  -39.00     0.002264       0.9994    1.0107    0.9901
    1.67   18.41  -15.68     0.013377       1.0011    1.0090    0.9900
 -177.53   90.84   87.08     0.000055       0.9925    1.0196    0.9882
 -172.50   92.77   87.01     0.000747       0.9924    1.0194    0.9885
 -167.26   96.20   86.87     0.000957       0.9922    1.0189    0.9893
 -162.02  106.87   86.55     0.000289       0.9919    1.0180    0.9903
   19.12   29.14   97.34     0.000316       0.9924    1.0167    0.9911
   14.39   12.10  109.02     0.000661       0.9943    1.0150    0.9909
    9.76    8.20  122.53     0.000822       0.9966    1.0129    0.9906
    5.61    6.76  -41.09     0.002160       0.9991    1.0106    0.9904
    1.78    6.21  -16.71     0.013719       1.0010    1.0088    0.9903
 -179.98   90.36 -169.39     0.000148       1.0019    1.0117    0.9866
 -179.97   91.07 -169.70     0.000670       1.0019    1.0117    0.9866
 -179.96   91.74 -170.32     0.000141       1.0019    1.0116    0.9866
 -179.96   93.75 -175.43     0.000164       1.0020    1.0115    0.9866
 -179.97   93.99 -177.20     0.000938       1.0020    1.0115    0.9866
 -179.98   94.12 -179.07     0.000156       1.0020    1.0115    0.9866
 -179.91   91.06 -151.35     0.000361       1.0007    1.0127    0.9867
 -179.65   95.21 -153.43     0.000311       1.0009    1.0125    0.9867
 -179.57   97.10 -155.56     0.000391       1.0011    1.0123    0.9867
 -179.55   98.77 -158.43     0.000009       1.0013    1.0121    0.9868
 -179.65  101.29 -166.51     0.000529       1.0017    1.0116    0.9868
 -179.76  102.05 -171.59     0.002301       1.0019    1.0115    0.9868
 -179.91  102.44 -177.15     0.000411       1.0020    1.0114    0.9868
 -178.79  101.76 -143.20     0.000221       0.9998    1.0134    0.9870
 -178.72  104.61 -146.88     0.000137       1.0002    1.0129    0.9870
 -178.81  107.05 -151.79     0.000661       1.0007    1.0124    0.9871
 -179.03  108.97 -158.12     0.001048       1.0012    1.0118    0.9871
 -179.36  110.29 -165.98     0.002586       1.0016    1.0114    0.9871
 -179.77  110.97 -175.15     0.000679       1.0019    1.0111    0.9872
 -177.56  106.30   46.73     0.000331       0.9983    1.0146    0.9873
 -177.43  110.45   42.70     0.000631       0.9989    1.0138    0.9874
 -177.61  114.04   37.13     0.001335       0.9997    1.0130    0.9875
 -178.07  116.88 -150.38     0.001300       1.0005    1.0121    0.9876
 -178.75  118.85 -160.39     0.001880       1.0013    1.0112    0.9876
 -179.56  119.85 -173.04     0.000899       1.0017    1.0107    0.9877
 -179.22   92.86   60.66     0.000033       0.9958    1.0171    0.9874
 -175.61  116.29   51.06     0.000943       0.9975    1.0147    0.9879
 -175.96  121.28   45.07     0.001337       0.9985    1.0136    0.9881
 -176.78  125.22   36.75     0.001027       0.9997    1.0123    0.9882
 -177.94  127.89   25.13     0.000950       1.0008    1.0111    0.9882
 -179.29  129.22    9.21     0.000961       1.0016    1.0103    0.9883
 -174.62  106.65   65.89     0.000307       0.9948    1.0174    0.9880
 -173.43  114.39   63.19     0.000237       0.9953    1.0166    0.9883
 -173.15  122.19   58.85     0.000624       0.9961    1.0155    0.9886
 -173.80  129.06   52.42     0.000641       0.9973    1.0141    0.9888
    4.84   45.74  136.66     0.000593       0.9988    1.0125    0.9889
    3.05   42.38  149.59     0.000308       1.0003    1.0109    0.9889
    1.03   40.76  168.46     0.000803       1.0014    1.0098    0.9889
 -178.31   92.94   74.85     0.000164       0.9935    1.0189    0.9879
 -175.03   99.29   74.37     0.000528       0.9935    1.0187    0.9881
 -170.29  117.17   70.90     0.000449       0.9940    1.0173    0.9890
 -169.94  128.35   66.55     0.000041       0.9948    1.0161    0.9893
    6.70   35.47  130.66     0.000015       0.9979    1.0127    0.9896
    1.37   29.98  -13.80     0.000474       1.0013    1.0093    0.9895
 -166.32  117.27   78.74     0.000190       0.9928    1.0178    0.9897
   14.19   44.36  105.51     0.000246       0.9935    1.0165    0.9902
   11.89   30.31  113.94     0.000069       0.9950    1.0148    0.9903
    5.07   19.79  -38.98     0.000166       0.9994    1.0107    0.9901
    1.66   18.41  -15.66     0.000284       1.0011    1.0090    0.9900
 -177.53   90.86   87.08     0.000010       0.9925    1.0196    0.9882
 -172.50   92.78   87.01     0.001046       0.9924    1.0194    0.9885
 -167.26   96.22   86.87     0.000838       0.9922    1.0189    0.9893
    5.61    6.75  -41.09     0.000197       0.9991    1.0106    0.9904
    1.72    6.21  -16.64     0.000010       1.0010    1.0088    0.9903
 -179.98   90.36 -169.39     0.000654       1.0019    1.0117    0.9866
 -179.97   91.07 -169.70     0.000143       1.0019    1.0117    0.9866
 -179.95   93.39 -173.82     0.000163       1.0020    1.0116    0.9866
 -179.95   93.75 -175.43     0.000899       1.0020    1.0115    0.9866
 -179.96   93.99 -177.20     0.000151       1.0020    1.0115    0.9866
 -179.77   93.19 -152.04     0.000321       1.0008    1.0127    0.9867
 -179.65   95.22 -153.43     0.000403       1.0009    1.0125    0.9867
 -179.58   97.10 -155.55     0.000049       1.0011    1.0123    0.9867
 -179.55   98.77 -158.43     0.000217       1.0013    1.0121    0.9868
 -179.57  100.18 -162.09     0.000481       1.0015    1.0119    0.9868
 -179.64  101.29 -166.51     0.001522       1.0017    1.0116    0.9868
 -179.76  102.05 -171.59     0.000317       1.0019    1.0115    0.9868
 -179.01   98.60 -140.59     0.000283       0.9994    1.0138    0.9869
 -178.80  101.76 -143.20     0.000259       0.9998    1.0134    0.9870
 -178.72  104.61 -146.88     0.000818       1.0002    1.0129    0.9870
 -178.80  107.05 -151.79     0.000833       1.0007    1.0124    0.9871
 -179.02  108.96 -158.12     0.000565       1.0012    1.0118    0.9871
 -179.36  110.29 -165.98     0.000375       1.0016    1.0114    0.9871
 -178.00  101.80   49.53     0.000404       0.9978    1.0152    0.9872
 -177.56  106.30   46.73     0.000840       0.9983    1.0146    0.9873
 -177.43  110.45   42.70     0.001101       0.9989    1.0138    0.9874
 -177.61  114.04   37.13     0.000734       0.9997    1.0130    0.9875
 -178.75  118.85 -160.39     0.000427       1.0013    1.0112    0.9876
 -179.21   92.86   60.66     0.000070       0.9958    1.0171    0.9874
 -176.55  104.61   58.12     0.000011       0.9962    1.0164    0.9876
 -175.81  110.59   55.29     0.000551       0.9967    1.0157    0.9878
 -175.61  116.29   51.06     0.000443       0.9975    1.0147    0.9879
 -177.94  127.89   25.13     0.000399       1.0008    1.0111    0.9882
 -176.51   99.56   67.42     0.000299       0.9946    1.0179    0.9878
 -174.62  106.65   65.89     0.000252       0.9948    1.0174    0.9880
 -173.43  114.39   63.19     0.000139       0.9953    1.0166    0.9883
    3.04   42.37  149.59     0.000463       1.0003    1.0109    0.9889
 -178.31   92.93   74.86     0.000458       0.9935    1.0189    0.9879
