MORPHOLOGY AT STRAIN =    0.0040  FOR PHASE  1
   0.999   1.005   0.996  <-- AXES OF PHASE ELLIPSOID
  179.99   89.86   90.02  <-- EULER ANGLES OF PHASE ELLIPSOID (deg)
   1.002   1.011   0.987  <-- AVERAGE OF GRAIN AXES FOR PHASE
   0.003   0.003   0.002  <-- STANDARD DEV OF AVG GRAIN AXES FOR PHASE
B      1148
  179.97   89.96  179.84     0.000000       1.0043    1.0117    0.9842
    0.14    0.00    0.00     0.000000       1.0028    1.0076    0.9896
  179.98   89.83   90.05     0.000000       0.9937    1.0198    0.9868
 -175.65  128.70   43.66     0.000000       1.0005    1.0127    0.9870
  179.99   90.28 -166.80     0.000145       1.0041    1.0119    0.9842
 -179.84   92.62 -170.56     0.000161       1.0042    1.0118    0.9843
 -179.89   93.05 -172.32     0.000850       1.0042    1.0117    0.9843
 -179.94   93.38 -174.35     0.000146       1.0042    1.0117    0.9843
 -179.93   90.93 -146.59     0.000338       1.0025    1.0133    0.9844
 -179.75   92.84 -147.30     0.000403       1.0026    1.0132    0.9844
 -179.58   94.68 -148.76     0.000062       1.0028    1.0130    0.9844
 -179.45   96.39 -151.03     0.000355       1.0030    1.0128    0.9844
 -179.42   97.94 -154.17     0.000441       1.0032    1.0125    0.9844
 -179.49   99.26 -158.25     0.000782       1.0035    1.0122    0.9845
 -179.61  100.30 -163.38     0.000271       1.0038    1.0119    0.9845
 -179.32   94.63   45.70     0.000388       1.0006    1.0149    0.9847
 -178.92   97.65   44.09     0.000432       1.0009    1.0146    0.9847
 -178.64  100.53 -138.45     0.000764       1.0013    1.0142    0.9848
 -178.54  103.18 -142.08     0.000633       1.0018    1.0136    0.9848
 -178.93  107.36 -153.72     0.000402       1.0031    1.0122    0.9849
 -178.67   96.16   55.38     0.000389       0.9987    1.0165    0.9851
 -177.91  100.29   53.74     0.000702       0.9990    1.0161    0.9852
 -177.38  104.38   51.12     0.000649       0.9994    1.0155    0.9853
 -177.87  114.66   34.63     0.000440       1.0020    1.0126    0.9856
 -178.62  116.67 -156.01     0.000541       1.0030    1.0115    0.9856
 -177.80   97.23   63.39     0.000063       0.9969    1.0178    0.9856
 -176.53  102.36   61.81     0.000250       0.9972    1.0174    0.9857
 -175.63  107.74   59.23     0.000058       0.9976    1.0167    0.9859
 -177.66  125.27   30.41     0.000854       1.0023    1.0115    0.9864
 -178.91   92.39   71.05     0.000065       0.9954    1.0189    0.9860
 -176.76   97.57   70.39     0.000089       0.9955    1.0187    0.9861
    3.59   45.30  143.40     0.000806       1.0014    1.0113    0.9874
    1.27   43.38  -15.29     0.000123       1.0030    1.0097    0.9874
 -178.55   92.07   77.15     0.000250       0.9945    1.0194    0.9864
    5.05   34.62  137.65     0.000444       1.0005    1.0112    0.9884
    1.78   32.39  161.09     0.000677       1.0027    1.0091    0.9884
 -178.27   91.37   82.60     0.000006       0.9940    1.0197    0.9867
 -174.68   94.77   82.31     0.000388       0.9938    1.0196    0.9869
 -170.93   99.66   81.71     0.000412       0.9935    1.0194    0.9874
    6.52   22.17  132.83     0.000165       0.9998    1.0111    0.9893
    2.31   20.17  -22.24     0.001189       1.0024    1.0085    0.9891
 -178.11   90.38   87.62     0.000200       0.9937    1.0198    0.9868
 -159.96  116.77   86.39     0.000182       0.9920    1.0179    0.9904
    7.73    7.69  -50.29     0.000021       0.9993    1.0110    0.9898
    3.01    6.84  -24.71     0.001447       1.0022    1.0083    0.9896
 -179.85   92.11 -169.10     0.000159       1.0041    1.0118    0.9843
 -179.88   92.62 -170.56     0.000795       1.0042    1.0118    0.9843
 -179.93   93.05 -172.32     0.000143       1.0042    1.0117    0.9843
 -179.91   90.92 -146.58     0.000408       1.0026    1.0133    0.9844
 -179.72   92.83 -147.30     0.000067       1.0026    1.0132    0.9844
 -179.54   94.67 -148.78     0.000416       1.0028    1.0130    0.9844
 -179.44   96.39 -151.06     0.000419       1.0030    1.0128    0.9844
 -179.45   97.94 -154.17     0.000260       1.0032    1.0125    0.9845
 -179.52   99.27 -158.24     0.000273       1.0035    1.0122    0.9845
 -179.77   91.52   46.49     0.000466       1.0005    1.0151    0.9847
 -179.29   94.61   45.71     0.000546       1.0006    1.0149    0.9847
 -178.89   97.63   44.08     0.000651       1.0009    1.0146    0.9847
 -178.62  100.51 -138.47     0.000354       1.0013    1.0142    0.9848
 -178.68  105.51 -147.02     0.000392       1.0024    1.0129    0.9849
 -178.95  107.36 -153.71     0.000555       1.0031    1.0122    0.9849
 -179.56   92.02   56.19     0.000360       0.9985    1.0167    0.9851
 -178.65   96.14   55.39     0.000493       0.9987    1.0165    0.9851
 -177.89  100.27   53.74     0.000456       0.9990    1.0161    0.9852
 -177.88  114.66   34.64     0.000629       1.0020    1.0126    0.9855
 -178.61  116.67 -156.00     0.000219       1.0030    1.0116    0.9856
 -177.80   97.23   63.41     0.000192       0.9969    1.0178    0.9856
 -176.38  122.37   42.08     0.000068       1.0008    1.0130    0.9864
 -177.63  125.26   30.43     0.000626       1.0023    1.0115    0.9864
 -178.94   92.46   71.05     0.000161       0.9954    1.0189    0.9860
 -176.77   97.61   70.40     0.000007       0.9955    1.0187    0.9861
    3.62   45.32  143.38     0.000486       1.0014    1.0113    0.9874
 -169.33  121.42   70.39     0.000111       0.9950    1.0173    0.9880
    5.07   34.63  137.65     0.000295       1.0005    1.0112    0.9884
 -178.28   91.44   82.60     0.000338       0.9939    1.0197    0.9867
 -174.69   94.83   82.31     0.000381       0.9938    1.0196    0.9869
 -170.94   99.71   81.71     0.000463       0.9935    1.0194    0.9874
 -165.07  123.47   78.19     0.000146       0.9934    1.0177    0.9892
    6.49   22.16  132.88     0.000116       0.9998    1.0111    0.9893
    2.27   20.17  -22.18     0.000001       1.0024    1.0085    0.9892
 -178.12   90.45   87.62     0.000189       0.9937    1.0198    0.9868
    7.45    7.66  -49.99     0.000144       0.9993    1.0110    0.9898
    2.73    6.84  -24.40     0.000088       1.0022    1.0083    0.9896
 -179.85   91.54 -167.98     0.000155       1.0041    1.0119    0.9843
 -179.89   92.11 -169.10     0.000744       1.0041    1.0118    0.9843
 -179.93   92.63 -170.55     0.000141       1.0042    1.0118    0.9843
 -179.97   93.73 -178.96     0.000160       1.0043    1.0117    0.9842
 -179.88   90.91 -146.58     0.000070       1.0026    1.0133    0.9844
 -179.68   92.82 -147.32     0.000429       1.0026    1.0132    0.9844
 -179.52   94.66 -148.82     0.000402       1.0028    1.0130    0.9844
 -179.49   97.95 -154.16     0.000291       1.0032    1.0125    0.9845
 -179.55   99.27 -158.23     0.000157       1.0035    1.0122    0.9845
 -179.88  101.38 -176.53     0.000507       1.0042    1.0115    0.9845
 -179.75   91.50   46.50     0.000587       1.0005    1.0151    0.9847
 -179.27   94.59   45.70     0.000569       1.0006    1.0149    0.9847
 -178.87   97.62 -135.94     0.000072       1.0009    1.0146    0.9847
 -178.60  103.20 -142.08     0.000199       1.0018    1.0136    0.9848
 -178.70  105.52 -147.01     0.000574       1.0024    1.0129    0.9849
 -178.95  107.36 -153.70     0.000109       1.0031    1.0122    0.9849
 -179.70  109.31 -173.98     0.001149       1.0040    1.0113    0.9849
 -179.54   92.00   56.20     0.000318       0.9985    1.0167    0.9850
 -178.63   96.12   55.39     0.000456       0.9987    1.0165    0.9851
 -177.39  111.81   42.04     0.000062       1.0010    1.0137    0.9855
 -177.86  114.66   34.65     0.000321       1.0020    1.0126    0.9855
 -179.44  117.69 -171.20     0.002138       1.0037    1.0108    0.9856
 -177.78   97.21   63.41     0.000003       0.9969    1.0178    0.9856
 -176.51  102.33   61.82     0.000018       0.9972    1.0174    0.9857
 -176.36  122.36   42.09     0.000138       1.0008    1.0130    0.9864
 -177.60  125.25   30.44     0.000443       1.0023    1.0114    0.9864
 -179.12  126.72 -168.13     0.003654       1.0034    1.0103    0.9865
 -178.94   92.47   71.06     0.000146       0.9955    1.0189    0.9859
 -173.09  124.89   57.25     0.000085       0.9978    1.0151    0.9872
 -174.40  130.75   49.00     0.000034       0.9995    1.0133    0.9874
    3.63   45.32  143.39     0.000972       1.0014    1.0113    0.9874
    1.29   43.39  -15.28     0.005571       1.0030    1.0097    0.9874
 -172.86  102.89   75.61     0.000174       0.9944    1.0190    0.9869
 -169.92  132.22   64.55     0.000208       0.9962    1.0157    0.9884
    7.98   39.56  124.43     0.000323       0.9981    1.0136    0.9885
    5.04   34.63  137.69     0.001533       1.0005    1.0112    0.9884
    1.74   32.40  161.15     0.008002       1.0027    1.0091    0.9884
 -178.30   91.55   82.60     0.000394       0.9939    1.0197    0.9867
 -174.71   94.92   82.31     0.000054       0.9938    1.0196    0.9869
 -167.34  108.24   80.63     0.000011       0.9932    1.0188    0.9883
   13.95   38.24  108.00     0.000060       0.9946    1.0160    0.9896
   10.52   27.20  118.50     0.000508       0.9969    1.0137    0.9895
    6.40   22.14  132.99     0.001875       0.9998    1.0111    0.9893
    2.15   20.16  -22.05     0.010560       1.0024    1.0086    0.9892
 -178.12   90.56   87.62     0.000147       0.9937    1.0198    0.9869
 -164.73   98.04   87.07     0.000106       0.9924    1.0190    0.9889
   17.78   18.90  101.29     0.000287       0.9933    1.0162    0.9907
   12.13   10.01  114.73     0.000658       0.9961    1.0138    0.9902
    7.01    7.62  -49.53     0.002033       0.9993    1.0110    0.9898
    2.24    6.82  -23.89     0.012711       1.0022    1.0083    0.9896
 -179.86   90.92 -167.23     0.000152       1.0041    1.0119    0.9843
 -179.89   91.54 -167.98     0.000701       1.0041    1.0119    0.9843
 -179.93   92.12 -169.09     0.000140       1.0041    1.0118    0.9843
 -179.95   93.61 -176.58     0.000162       1.0043    1.0117    0.9842
 -179.92   93.73 -178.96     0.000959       1.0043    1.0117    0.9842
 -179.84   90.89 -146.61     0.000420       1.0025    1.0133    0.9844
 -179.65   92.81 -147.36     0.000384       1.0026    1.0132    0.9844
 -179.51   96.41 -151.05     0.000303       1.0030    1.0128    0.9844
 -179.52   97.96 -154.15     0.000326       1.0032    1.0125    0.9845
 -179.72  101.02 -169.53     0.000549       1.0041    1.0117    0.9845
 -179.83  101.38 -176.53     0.002815       1.0042    1.0115    0.9845
 -179.72   91.48   46.49     0.000518       1.0005    1.0151    0.9847
 -178.62  103.21 -142.07     0.000329       1.0018    1.0136    0.9848
 -178.71  105.52 -147.00     0.000157       1.0024    1.0129    0.9849
 -178.93  107.36 -153.69     0.000175       1.0031    1.0122    0.9849
 -179.25  108.64 -162.65     0.001264       1.0036    1.0116    0.9849
 -179.67  109.31 -173.98     0.004569       1.0040    1.0113    0.9849
 -179.52   91.98   56.20     0.000401       0.9985    1.0167    0.9850
 -177.23  108.32   47.32     0.000104       1.0001    1.0147    0.9854
 -177.39  111.81   42.05     0.000231       1.0010    1.0137    0.9855
 -177.84  114.65   34.65     0.000898       1.0020    1.0126    0.9855
 -178.54  116.65 -156.00     0.002068       1.0030    1.0116    0.9856
 -179.44  117.69 -171.21     0.006236       1.0037    1.0108    0.9856
 -175.28  113.19   55.38     0.000100       0.9984    1.0157    0.9861
 -175.54  118.22   49.90     0.000539       0.9995    1.0145    0.9863
 -176.34  122.35   42.09     0.001585       1.0008    1.0130    0.9864
 -177.59  125.24   30.43     0.002735       1.0023    1.0114    0.9864
 -179.13  126.71 -168.14     0.008053       1.0034    1.0103    0.9865
 -173.34  110.21   66.64     0.000066       0.9959    1.0177    0.9866
 -172.70  117.68   62.89     0.000018       0.9966    1.0166    0.9870
 -173.08  124.89   57.25     0.001002       0.9978    1.0151    0.9872
 -174.40  130.74   49.00     0.001955       0.9995    1.0133    0.9874
    3.62   45.32  143.41     0.002990       1.0014    1.0113    0.9874
    1.26   43.39  -15.26     0.009874       1.0030    1.0097    0.9874
 -175.68   96.94   76.66     0.000307       0.9944    1.0193    0.9865
 -172.86  102.92   75.61     0.000114       0.9944    1.0190    0.9869
 -170.52  111.02   73.74     0.000314       0.9944    1.0184    0.9875
 -169.35  121.46   70.39     0.000013       0.9950    1.0173    0.9880
 -169.94  132.24   64.53     0.000771       0.9962    1.0157    0.9884
    7.95   39.54  124.47     0.001812       0.9981    1.0136    0.9885
    4.99   34.61  137.74     0.002644       1.0005    1.0112    0.9884
    1.67   32.39  161.21     0.011943       1.0027    1.0091    0.9884
 -178.31   91.66   82.60     0.000150       0.9939    1.0197    0.9867
 -167.35  108.30   80.63     0.000373       0.9932    1.0188    0.9883
 -165.12  123.61   78.17     0.000114       0.9934    1.0177    0.9892
   13.90   38.17  108.02     0.000634       0.9946    1.0160    0.9896
   10.43   27.13  118.59     0.001322       0.9969    1.0138    0.9895
    6.27   22.10  133.12     0.002264       0.9998    1.0111    0.9893
    2.00   20.15  -21.90     0.013377       1.0024    1.0086    0.9892
 -178.13   90.69   87.62     0.000055       0.9937    1.0198    0.9868
 -174.14   91.87   87.53     0.000747       0.9934    1.0197    0.9871
 -169.70   93.79   87.35     0.000957       0.9930    1.0196    0.9878
 -164.74   98.17   87.08     0.000289       0.9924    1.0190    0.9889
 -160.04  117.44   86.37     0.000316       0.9920    1.0179    0.9904
   17.72   18.82  101.32     0.000661       0.9933    1.0162    0.9907
   11.95    9.95  114.89     0.000822       0.9961    1.0138    0.9902
    6.53    7.57  -49.05     0.002160       0.9993    1.0110    0.9898
    1.69    6.81  -23.33     0.013719       1.0022    1.0083    0.9896
 -179.88   90.27 -166.85     0.000148       1.0040    1.0119    0.9843
 -179.91   90.92 -167.23     0.000670       1.0041    1.0119    0.9843
 -179.94   91.55 -167.97     0.000141       1.0041    1.0119    0.9843
 -179.94   93.38 -174.34     0.000164       1.0043    1.0117    0.9842
 -179.91   93.61 -176.59     0.000938       1.0043    1.0117    0.9842
 -179.88   93.73 -178.96     0.000156       1.0043    1.0117    0.9842
 -179.82   90.88 -146.64     0.000361       1.0025    1.0133    0.9844
 -179.59   94.68 -148.81     0.000311       1.0028    1.0130    0.9844
 -179.54   96.42 -151.04     0.000391       1.0030    1.0128    0.9844
 -179.53   97.97 -154.13     0.000009       1.0033    1.0125    0.9844
 -179.59  100.30 -163.34     0.000529       1.0038    1.0119    0.9845
 -179.68  101.01 -169.54     0.002301       1.0041    1.0117    0.9845
 -179.81  101.38 -176.54     0.000411       1.0042    1.0115    0.9845
 -178.70  100.56 -138.47     0.000221       1.0013    1.0142    0.9848
 -178.63  103.22 -142.06     0.000137       1.0018    1.0136    0.9848
 -178.69  105.52 -146.99     0.000661       1.0024    1.0129    0.9849
 -178.89  107.35 -153.69     0.001048       1.0031    1.0122    0.9849
 -179.21  108.64 -162.67     0.002586       1.0036    1.0116    0.9849
 -179.68  109.30 -173.98     0.000679       1.0040    1.0113    0.9850
 -177.41  104.40   51.10     0.000331       0.9994    1.0155    0.9853
 -177.23  108.32   47.33     0.000631       1.0001    1.0147    0.9854
 -177.37  111.81   42.05     0.001335       1.0010    1.0137    0.9855
 -177.81  114.64   34.65     0.001300       1.0020    1.0126    0.9855
 -178.54  116.65 -156.01     0.001880       1.0030    1.0116    0.9856
 -179.46  117.68 -171.22     0.000899       1.0037    1.0108    0.9856
 -179.23   92.30   64.18     0.000033       0.9968    1.0180    0.9855
 -175.29  113.19   55.38     0.000943       0.9984    1.0157    0.9861
 -175.52  118.21   49.90     0.001337       0.9995    1.0145    0.9863
 -176.33  122.34   42.09     0.001027       1.0008    1.0130    0.9864
 -177.60  125.24   30.42     0.000950       1.0023    1.0114    0.9864
 -179.16  126.71 -168.15     0.000961       1.0034    1.0103    0.9865
 -174.79  103.38   69.01     0.000307       0.9956    1.0183    0.9863
 -173.33  110.19   66.64     0.000237       0.9959    1.0177    0.9866
 -172.70  117.68   62.89     0.000624       0.9966    1.0166    0.9870
 -173.08  124.89   57.24     0.000641       0.9978    1.0151    0.9872
 -174.41  130.75   48.98     0.000593       0.9995    1.0133    0.9874
    3.59   45.31  143.43     0.000308       1.0014    1.0113    0.9874
    1.21   43.38  -15.23     0.000803       1.0030    1.0097    0.9874
 -178.59   92.19   77.16     0.000164       0.9945    1.0194    0.9863
 -175.66   96.89   76.67     0.000528       0.9945    1.0193    0.9865
 -170.52  111.01   73.75     0.000449       0.9944    1.0184    0.9874
 -169.36  121.47   70.39     0.000041       0.9950    1.0173    0.9880
    7.90   39.51  124.51     0.000015       0.9981    1.0136    0.9885
    1.60   32.38  161.26     0.000474       1.0027    1.0091    0.9884
 -167.35  108.33   80.64     0.000190       0.9932    1.0188    0.9883
 -165.13  123.65   78.17     0.000246       0.9934    1.0177    0.9892
   13.88   38.14  108.03     0.000069       0.9946    1.0160    0.9896
    6.14   22.07  133.23     0.000166       0.9998    1.0111    0.9893
    1.86   20.13  -21.78     0.000284       1.0024    1.0086    0.9891
 -178.13   90.78   87.62     0.000010       0.9937    1.0198    0.9868
 -174.14   91.96   87.54     0.001046       0.9934    1.0198    0.9871
 -169.70   93.88   87.36     0.000838       0.9930    1.0196    0.9878
    6.49    7.56  -49.05     0.000197       0.9993    1.0110    0.9898
    1.24    6.79  -22.90     0.000010       1.0022    1.0083    0.9896
 -179.92   90.27 -166.85     0.000654       1.0040    1.0119    0.9843
 -179.95   90.93 -167.22     0.000143       1.0041    1.0119    0.9843
 -179.93   93.05 -172.30     0.000163       1.0042    1.0117    0.9842
 -179.89   93.38 -174.34     0.000899       1.0043    1.0117    0.9842
 -179.86   93.61 -176.59     0.000151       1.0043    1.0117    0.9842
 -179.72   92.83 -147.36     0.000321       1.0026    1.0132    0.9844
 -179.63   94.69 -148.80     0.000403       1.0028    1.0130    0.9844
 -179.56   96.42 -151.02     0.000049       1.0030    1.0128    0.9844
 -179.52   97.96 -154.12     0.000217       1.0033    1.0125    0.9844
 -179.51   99.27 -158.20     0.000481       1.0036    1.0122    0.9844
 -179.55  100.30 -163.36     0.001522       1.0038    1.0119    0.9845
 -179.65  101.01 -169.55     0.000317       1.0041    1.0117    0.9845
 -178.94   97.66 -135.95     0.000283       1.0009    1.0146    0.9847
 -178.71  100.56 -138.45     0.000259       1.0013    1.0142    0.9848
 -178.62  103.21 -142.04     0.000818       1.0018    1.0136    0.9848
 -178.66  105.51 -146.99     0.000833       1.0024    1.0129    0.9849
 -178.86  107.34 -153.71     0.000565       1.0031    1.0122    0.9849
 -179.22  108.64 -162.67     0.000375       1.0036    1.0116    0.9849
 -177.90  100.28   53.70     0.000404       0.9989    1.0161    0.9852
 -177.42  104.41   51.10     0.000840       0.9994    1.0155    0.9853
 -177.23  108.32   47.33     0.001101       1.0001    1.0147    0.9854
 -177.35  111.80   42.06     0.000734       1.0010    1.0137    0.9855
 -178.55  116.65 -156.02     0.000427       1.0030    1.0115    0.9856
 -179.21   92.27   64.18     0.000070       0.9968    1.0180    0.9855
 -176.50  102.31   61.80     0.000011       0.9971    1.0174    0.9857
 -175.64  107.75   59.21     0.000551       0.9976    1.0167    0.9859
 -175.28  113.19   55.38     0.000443       0.9984    1.0157    0.9861
 -177.62  125.24   30.41     0.000399       1.0023    1.0114    0.9865
 -176.72   97.50   70.42     0.000299       0.9955    1.0187    0.9861
 -174.78  103.36   69.01     0.000252       0.9956    1.0183    0.9863
 -173.33  110.19   66.64     0.000139       0.9959    1.0177    0.9866
    3.55   45.30  143.45     0.000463       1.0014    1.0113    0.9874
 -178.57   92.12   77.16     0.000458       0.9945    1.0194    0.9863
