MORPHOLOGY AT STRAIN =    0.0025  FOR PHASE  1
   0.999   1.003   0.998  <-- AXES OF PHASE ELLIPSOID
  179.88   86.75   90.16  <-- EULER ANGLES OF PHASE ELLIPSOID (deg)
   1.001   1.006   0.993  <-- AVERAGE OF GRAIN AXES FOR PHASE
   0.002   0.002   0.001  <-- STANDARD DEV OF AVG GRAIN AXES FOR PHASE
B      1148
  179.63   89.41  178.57     0.000000       1.0025    1.0061    0.9914
  135.73    1.41 -134.09     0.000000       1.0019    1.0043    0.9938
  179.70   87.25   90.53     0.000000       0.9961    1.0110    0.9930
    3.14   48.64  135.50     0.000000       1.0004    1.0071    0.9926
  179.80   89.58 -166.17     0.000145       1.0025    1.0063    0.9913
 -178.88   92.31 -170.80     0.000161       1.0024    1.0062    0.9915
 -179.37   92.85 -173.30     0.000850       1.0024    1.0062    0.9915
 -179.89   93.22 -176.04     0.000146       1.0024    1.0061    0.9915
  179.82   90.29 -144.48     0.000338       1.0014    1.0072    0.9915
 -179.69   92.30 -144.92     0.000403       1.0015    1.0071    0.9914
 -179.08   94.22 -146.36     0.000062       1.0016    1.0070    0.9914
 -178.51   96.04 -148.94     0.000355       1.0017    1.0069    0.9914
 -178.56   97.83 -152.69     0.000441       1.0018    1.0067    0.9916
 -179.06   99.41 -157.53     0.000782       1.0020    1.0065    0.9916
 -179.62  100.60 -163.57     0.000271       1.0022    1.0063    0.9916
 -179.43   94.28   47.74     0.000388       1.0002    1.0082    0.9916
 -178.64   97.41   46.24     0.000432       1.0004    1.0081    0.9916
 -177.94  100.41   43.63     0.000764       1.0006    1.0078    0.9916
 -177.88  103.40 -140.30     0.000633       1.0009    1.0074    0.9917
 -179.09  108.22 -152.98     0.000402       1.0018    1.0065    0.9918
 -178.97   96.15   57.00     0.000389       0.9990    1.0092    0.9919
 -177.92  100.50   55.47     0.000702       0.9992    1.0090    0.9919
 -177.03  104.74   52.87     0.000649       0.9995    1.0087    0.9919
 -178.29  116.19   35.70     0.000440       1.0012    1.0068    0.9921
 -179.10  118.18   24.38     0.000541       1.0019    1.0062    0.9920
 -178.31   97.77   64.68     0.000063       0.9978    1.0100    0.9922
 -176.89  103.32   63.18     0.000250       0.9981    1.0098    0.9922
 -175.74  108.96   60.61     0.000058       0.9984    1.0094    0.9923
 -178.31  127.40   31.13     0.000854       1.0015    1.0062    0.9923
 -179.25   92.12   72.15     0.000065       0.9969    1.0107    0.9925
 -177.22   98.38   71.54     0.000089       0.9970    1.0106    0.9925
    2.94   42.76  142.94     0.000806       1.0010    1.0062    0.9928
    1.36   41.21  -14.23     0.000123       1.0020    1.0052    0.9928
 -178.74   91.31   78.19     0.000250       0.9964    1.0109    0.9928
    4.41   31.90  137.68     0.000444       1.0005    1.0062    0.9933
    2.16   30.17  161.83     0.000677       1.0018    1.0050    0.9933
 -178.39   89.85   83.50     0.000006       0.9961    1.0111    0.9929
 -174.74   93.91   83.27     0.000388       0.9960    1.0111    0.9930
 -170.84   99.63   82.71     0.000412       0.9959    1.0109    0.9932
    6.16   19.74  133.16     0.000165       1.0001    1.0062    0.9937
    3.54   18.29  -22.23     0.001189       1.0016    1.0048    0.9936
 -178.32   88.05   88.28     0.000200       0.9960    1.0111    0.9930
 -159.85  126.36   86.92     0.000182       0.9952    1.0101    0.9948
   10.23    6.33  -52.42     0.000021       0.9999    1.0062    0.9940
    9.29    5.78  -29.73     0.001447       1.0015    1.0047    0.9938
 -178.86   91.75 -169.11     0.000159       1.0024    1.0062    0.9915
 -179.34   92.38 -171.27     0.000795       1.0023    1.0062    0.9915
 -179.86   92.86 -173.70     0.000143       1.0024    1.0061    0.9915
 -179.89   90.25 -144.17     0.000408       1.0015    1.0072    0.9914
 -179.26   92.24 -144.86     0.000067       1.0015    1.0072    0.9914
 -178.65   94.16 -146.60     0.000416       1.0016    1.0070    0.9914
 -178.50   96.09 -149.40     0.000419       1.0017    1.0069    0.9915
 -178.94   97.95 -153.11     0.000260       1.0018    1.0067    0.9916
 -179.47   99.48 -157.84     0.000273       1.0020    1.0065    0.9916
 -179.91   90.93   48.54     0.000466       1.0001    1.0083    0.9916
 -179.07   94.14   47.83     0.000546       1.0002    1.0083    0.9916
 -178.28   97.27   46.14     0.000651       1.0004    1.0081    0.9916
 -177.80  100.38   43.32     0.000354       1.0006    1.0078    0.9917
 -178.75  106.23 -145.90     0.000392       1.0013    1.0069    0.9918
 -179.27  108.20 -153.05     0.000555       1.0018    1.0065    0.9917
 -179.87   91.64   57.82     0.000360       0.9989    1.0093    0.9919
 -178.72   95.99   57.11     0.000493       0.9990    1.0093    0.9918
 -177.63  100.31   55.46     0.000456       0.9992    1.0090    0.9919
 -178.36  116.16   35.68     0.000629       1.0012    1.0068    0.9920
 -178.87  118.05   24.52     0.000219       1.0019    1.0062    0.9919
 -178.17   97.68   64.80     0.000192       0.9979    1.0100    0.9922
 -177.11  124.61   43.00     0.000068       1.0006    1.0071    0.9924
 -177.96  127.19   31.19     0.000626       1.0015    1.0062    0.9924
 -179.51   92.87   72.18     0.000161       0.9969    1.0107    0.9925
 -177.37   98.85   71.55     0.000007       0.9970    1.0106    0.9925
    3.13   42.94  142.97     0.000486       1.0010    1.0062    0.9929
 -169.79  125.22   70.92     0.000111       0.9969    1.0097    0.9935
    4.31   32.00  137.95     0.000295       1.0005    1.0062    0.9934
 -178.49   90.61   83.51     0.000338       0.9961    1.0111    0.9930
 -174.80   94.37   83.26     0.000381       0.9960    1.0111    0.9930
 -170.90   99.88   82.67     0.000463       0.9959    1.0109    0.9933
 -165.74  129.84   78.36     0.000146       0.9960    1.0100    0.9941
    5.31   19.69  134.14     0.000116       1.0001    1.0062    0.9938
    2.78   18.35  -21.40     0.000001       1.0016    1.0048    0.9937
 -178.34   88.61   88.30     0.000189       0.9960    1.0111    0.9931
    5.28    6.05  -47.33     0.000144       0.9998    1.0062    0.9940
    5.03    5.75  -25.34     0.000088       1.0015    1.0047    0.9939
 -178.84   91.12 -167.83     0.000155       1.0024    1.0062    0.9915
 -179.31   91.83 -169.60     0.000744       1.0023    1.0062    0.9915
 -179.83   92.40 -171.66     0.000141       1.0023    1.0062    0.9915
 -179.70   93.26  178.53     0.000160       1.0026    1.0061    0.9913
 -179.46   90.18 -144.10     0.000070       1.0015    1.0072    0.9914
 -178.82   92.16 -145.09     0.000429       1.0015    1.0071    0.9914
 -178.49   94.17 -147.06     0.000402       1.0015    1.0070    0.9915
 -179.37   98.04 -153.39     0.000291       1.0018    1.0066    0.9916
 -179.76   99.47 -157.94     0.000157       1.0020    1.0064    0.9916
 -179.44  101.45 -178.66     0.000507       1.0026    1.0061    0.9914
 -179.55   90.78   48.64     0.000587       1.0002    1.0083    0.9916
 -178.69   93.97   47.74     0.000569       1.0002    1.0082    0.9916
 -178.02   97.17   45.86     0.000072       1.0003    1.0080    0.9917
 -178.55  103.70 -140.83     0.000199       1.0009    1.0074    0.9918
 -178.98  106.24 -145.96     0.000574       1.0014    1.0069    0.9917
 -179.23  108.11 -152.94     0.000109       1.0019    1.0065    0.9917
 -179.08  109.93 -175.73     0.001149       1.0025    1.0060    0.9916
 -179.61   91.46   57.94     0.000318       0.9989    1.0093    0.9918
 -178.40   95.76   57.11     0.000456       0.9990    1.0092    0.9918
 -177.82  113.19   43.17     0.000062       1.0005    1.0075    0.9920
 -178.23  116.03   35.80     0.000321       1.0013    1.0068    0.9920
 -178.93  118.83 -172.53     0.002138       1.0023    1.0058    0.9920
 -177.93   97.42   64.85     0.000003       0.9979    1.0100    0.9921
 -176.50  102.93   63.17     0.000018       0.9981    1.0098    0.9922
 -176.92  124.41   43.04     0.000138       1.0006    1.0071    0.9924
 -177.75  127.02   31.23     0.000443       1.0015    1.0062    0.9924
 -178.77  128.33 -169.13     0.003654       1.0021    1.0055    0.9924
 -179.54   93.07   72.28     0.000146       0.9970    1.0107    0.9925
 -174.09  128.09   57.53     0.000085       0.9987    1.0084    0.9929
    4.62   46.45  130.79     0.000034       0.9997    1.0074    0.9929
    3.09   43.04  143.08     0.000972       1.0009    1.0062    0.9929
    1.41   41.43  -14.39     0.005571       1.0019    1.0052    0.9929
 -173.19  104.94   76.64     0.000174       0.9964    1.0108    0.9930
    8.43   43.02  116.11     0.000208       0.9977    1.0088    0.9936
    6.16   35.82  125.47     0.000323       0.9990    1.0076    0.9935
    3.81   31.96  138.43     0.001533       1.0004    1.0062    0.9934
    1.50   30.32  162.30     0.008002       1.0017    1.0050    0.9934
 -178.64   91.89   83.52     0.000394       0.9961    1.0111    0.9930
 -174.92   95.36   83.26     0.000054       0.9960    1.0111    0.9931
 -167.54  111.51   81.40     0.000011       0.9957    1.0106    0.9938
   10.54   30.25  110.67     0.000060       0.9969    1.0090    0.9942
    6.76   22.55  121.94     0.000508       0.9984    1.0077    0.9940
    3.76   19.46  135.62     0.001875       1.0000    1.0062    0.9938
    1.19   18.33  -20.07     0.010560       1.0015    1.0048    0.9937
 -178.38   90.06   88.32     0.000147       0.9959    1.0111    0.9931
 -164.58   94.74   87.71     0.000106       0.9953    1.0107    0.9941
    3.37    7.39  115.51     0.000287       0.9964    1.0091    0.9946
   -2.82    5.82  129.87     0.000658       0.9980    1.0078    0.9943
   -2.41    5.66  -39.73     0.002033       0.9998    1.0062    0.9940
   -1.99    5.68  -18.51     0.012711       1.0014    1.0047    0.9939
 -178.83   90.44 -166.95     0.000152       1.0023    1.0063    0.9915
 -179.30   91.21 -168.32     0.000701       1.0023    1.0062    0.9915
 -179.81   91.85 -169.98     0.000140       1.0023    1.0062    0.9915
 -179.70   93.13 -178.65     0.000162       1.0026    1.0061    0.9913
 -179.17   93.24  178.97     0.000959       1.0026    1.0061    0.9913
 -179.01   90.09 -144.32     0.000420       1.0014    1.0072    0.9914
 -178.54   92.12 -145.56     0.000384       1.0014    1.0071    0.9915
 -179.32   96.35 -150.07     0.000303       1.0016    1.0068    0.9916
 -179.69   98.06 -153.47     0.000326       1.0018    1.0066    0.9916
 -179.36  101.03 -170.36     0.000549       1.0025    1.0061    0.9914
 -178.92  101.40 -178.24     0.002815       1.0026    1.0061    0.9914
 -179.15   90.59   48.55     0.000518       1.0002    1.0083    0.9916
 -178.82  103.76 -140.90     0.000329       1.0010    1.0074    0.9918
 -179.02  106.17 -145.86     0.000157       1.0014    1.0070    0.9917
 -178.99  107.96 -152.71     0.000175       1.0019    1.0065    0.9916
 -178.80  109.18 -162.40     0.001264       1.0023    1.0062    0.9916
 -178.89  109.86 -175.29     0.004569       1.0024    1.0060    0.9917
 -179.26   91.18   57.94     0.000401       0.9989    1.0093    0.9918
 -177.55  109.44   48.42     0.000104       0.9999    1.0081    0.9920
 -177.82  113.11   43.24     0.000231       1.0006    1.0075    0.9920
 -177.96  115.85   36.00     0.000898       1.0013    1.0068    0.9919
 -178.28  117.74   24.84     0.002068       1.0019    1.0062    0.9920
 -178.90  118.77 -172.15     0.006236       1.0023    1.0058    0.9920
 -175.84  115.14   56.24     0.000100       0.9989    1.0088    0.9924
 -176.21  120.33   50.79     0.000539       0.9997    1.0080    0.9924
 -176.82  124.25   43.06     0.001585       1.0005    1.0071    0.9924
 -177.73  126.92   31.27     0.002735       1.0014    1.0062    0.9924
 -178.91  128.29 -168.85     0.008053       1.0021    1.0055    0.9925
 -173.89  112.73   67.51     0.000066       0.9974    1.0100    0.9927
 -173.52  120.73   63.36     0.000018       0.9978    1.0093    0.9929
 -174.28  128.13   57.39     0.001002       0.9987    1.0085    0.9930
    4.43   46.45  130.92     0.001955       0.9997    1.0074    0.9929
    2.83   43.04  143.21     0.002990       1.0009    1.0062    0.9929
    1.01   41.43  -14.46     0.009874       1.0019    1.0052    0.9929
 -176.22   98.88   77.74     0.000307       0.9964    1.0109    0.9928
 -173.32  105.40   76.60     0.000114       0.9964    1.0108    0.9929
 -171.16  114.72   74.47     0.000314       0.9965    1.0104    0.9932
 -170.65  126.56   70.41     0.000013       0.9969    1.0097    0.9935
    7.81   42.50  116.56     0.000771       0.9977    1.0088    0.9936
    5.49   35.53  125.96     0.001812       0.9990    1.0076    0.9935
    3.07   31.81  138.94     0.002644       1.0004    1.0062    0.9934
    0.63   30.27  162.64     0.011943       1.0017    1.0050    0.9934
 -178.79   93.22   83.53     0.000150       0.9961    1.0111    0.9929
 -167.85  113.00   81.31     0.000373       0.9957    1.0106    0.9938
 -167.14  133.60   77.52     0.000114       0.9960    1.0100    0.9941
    9.58   29.30  111.33     0.000634       0.9969    1.0090    0.9941
    5.00   21.85  123.45     0.001322       0.9984    1.0077    0.9940
    1.93   19.13  137.16     0.002264       1.0000    1.0062    0.9938
   -0.73   18.23  -18.68     0.013377       1.0015    1.0048    0.9937
 -178.42   91.86   88.34     0.000055       0.9959    1.0111    0.9931
 -174.37   92.13   88.28     0.000747       0.9958    1.0111    0.9932
 -169.84   93.14   88.08     0.000957       0.9955    1.0110    0.9936
 -164.77   97.59   87.74     0.000289       0.9952    1.0107    0.9942
   15.63   24.24   96.49     0.000316       0.9952    1.0101    0.9948
    2.79    7.28  115.84     0.000661       0.9965    1.0091    0.9945
   -6.71    5.51  133.43     0.000822       0.9981    1.0078    0.9942
  -10.84    5.34  -31.60     0.002160       0.9998    1.0062    0.9940
   -9.65    5.63  -11.36     0.013719       1.0015    1.0047    0.9939
 -178.82   89.75 -166.51     0.000148       1.0023    1.0063    0.9915
 -179.28   90.54 -167.45     0.000670       1.0023    1.0062    0.9915
 -179.79   91.24 -168.69     0.000141       1.0023    1.0062    0.9915
 -179.70   92.87 -175.96     0.000164       1.0026    1.0061    0.9913
 -179.18   93.09 -178.22     0.000938       1.0026    1.0061    0.9913
 -178.73   93.26  179.40     0.000156       1.0025    1.0061    0.9914
 -178.68   90.03 -144.80     0.000361       1.0014    1.0072    0.9915
 -179.32   94.46 -147.72     0.000311       1.0015    1.0070    0.9916
 -179.67   96.39 -150.14     0.000391       1.0017    1.0068    0.9916
 -179.80   98.00 -153.36     0.000009       1.0019    1.0066    0.9915
 -179.31  100.24 -163.11     0.000529       1.0024    1.0063    0.9914
 -178.86  100.95 -169.97     0.002301       1.0025    1.0062    0.9914
 -178.88  101.40 -177.84     0.000411       1.0025    1.0061    0.9915
 -178.81  100.86 -137.28     0.000221       1.0006    1.0077    0.9918
 -178.93  103.72 -140.82     0.000137       1.0010    1.0074    0.9917
 -178.86  106.03 -145.65     0.000661       1.0015    1.0070    0.9916
 -178.61  107.80 -152.43     0.001048       1.0019    1.0066    0.9916
 -178.55  109.09 -162.18     0.002586       1.0022    1.0062    0.9916
 -178.99  109.86 -174.95     0.000679       1.0024    1.0060    0.9917
 -177.58  105.12   52.17     0.000331       0.9994    1.0086    0.9920
 -177.66  109.43   48.45     0.000631       1.0000    1.0081    0.9920
 -177.66  112.94   43.40     0.001335       1.0006    1.0075    0.9919
 -177.73  115.68   36.12     0.001300       1.0013    1.0069    0.9919
 -178.25  117.69   24.97     0.001880       1.0018    1.0062    0.9920
 -179.09  118.78 -171.87     0.000899       1.0022    1.0058    0.9921
 -179.02   91.45   65.62     0.000033       0.9979    1.0101    0.9921
 -175.94  115.14   56.22     0.000943       0.9989    1.0088    0.9924
 -176.16  120.19   50.83     0.001337       0.9996    1.0080    0.9924
 -176.82  124.18   43.10     0.001027       1.0005    1.0071    0.9924
 -177.86  126.93   31.32     0.000950       1.0014    1.0062    0.9925
 -179.22  128.33 -168.63     0.000961       1.0020    1.0055    0.9925
 -175.07  104.80   70.06     0.000307       0.9971    1.0104    0.9926
 -173.95  112.73   67.45     0.000237       0.9974    1.0100    0.9927
 -173.74  120.92   63.28     0.000624       0.9978    1.0093    0.9929
 -174.50  128.24   57.30     0.000641       0.9986    1.0085    0.9930
    4.17   46.35  131.01     0.000593       0.9997    1.0074    0.9929
    2.46   42.93  143.28     0.000308       1.0009    1.0062    0.9929
    0.50   41.35  -14.57     0.000803       1.0019    1.0053    0.9929
 -179.01   92.91   78.29     0.000164       0.9965    1.0110    0.9926
 -176.07   98.41   77.75     0.000528       0.9964    1.0109    0.9927
 -171.31  115.05   74.42     0.000449       0.9965    1.0104    0.9932
 -170.93  126.99   70.32     0.000041       0.9969    1.0097    0.9935
    4.82   35.18  126.36     0.000015       0.9990    1.0076    0.9935
   -0.21   30.15  162.79     0.000474       1.0017    1.0050    0.9933
 -168.07  114.12   81.28     0.000190       0.9958    1.0106    0.9937
   12.54   45.52  102.58     0.000246       0.9960    1.0100    0.9941
    9.38   29.08  111.30     0.000069       0.9970    1.0090    0.9941
    0.49   18.83  138.17     0.000166       1.0001    1.0063    0.9937
   -2.34   18.09  -17.82     0.000284       1.0016    1.0048    0.9936
 -178.43   93.23   88.35     0.000010       0.9960    1.0111    0.9930
 -174.39   93.64   88.32     0.001046       0.9958    1.0111    0.9932
 -169.89   95.08   88.13     0.000838       0.9956    1.0110    0.9935
   -9.10    5.35  -33.85     0.000197       0.9999    1.0063    0.9939
  -13.57    5.58   -8.18     0.000010       1.0015    1.0047    0.9938
 -179.28   89.84 -167.01     0.000654       1.0023    1.0062    0.9915
 -179.79   90.57 -167.82     0.000143       1.0023    1.0062    0.9915
 -179.72   92.51 -173.52     0.000163       1.0026    1.0062    0.9913
 -179.19   92.82 -175.57     0.000899       1.0026    1.0062    0.9913
 -178.73   93.10 -177.83     0.000151       1.0025    1.0061    0.9914
 -179.37   92.44 -146.21     0.000321       1.0014    1.0071    0.9916
 -179.70   94.53 -147.78     0.000403       1.0015    1.0070    0.9916
 -179.82   96.35 -150.02     0.000049       1.0017    1.0068    0.9915
 -179.68   97.88 -153.09     0.000217       1.0020    1.0067    0.9914
 -179.31   99.13 -157.27     0.000481       1.0022    1.0065    0.9914
 -178.84  100.14 -162.81     0.001522       1.0024    1.0063    0.9914
 -178.74  100.94 -169.70     0.000317       1.0024    1.0062    0.9915
 -178.95   97.67   45.23     0.000283       1.0003    1.0080    0.9918
 -179.00  100.87 -137.21     0.000259       1.0006    1.0077    0.9917
 -178.85  103.60 -140.62     0.000818       1.0010    1.0074    0.9917
 -178.54  105.85 -145.39     0.000833       1.0015    1.0070    0.9916
 -178.27  107.67 -152.26     0.000565       1.0019    1.0066    0.9916
 -178.63  109.10 -161.97     0.000375       1.0021    1.0062    0.9917
 -177.88  100.48   54.75     0.000404       0.9991    1.0089    0.9920
 -177.80  105.22   52.17     0.000840       0.9995    1.0086    0.9920
 -177.63  109.32   48.58     0.001101       1.0000    1.0081    0.9920
 -177.40  112.74   43.58     0.000734       1.0006    1.0075    0.9919
 -178.39  117.73   25.09     0.000427       1.0018    1.0062    0.9921
 -178.78   91.08   65.49     0.000070       0.9978    1.0101    0.9921
 -176.58  102.87   62.77     0.000011       0.9980    1.0098    0.9923
 -176.17  109.25   60.04     0.000551       0.9983    1.0094    0.9924
 -175.96  115.07   56.28     0.000443       0.9989    1.0088    0.9924
 -178.09  127.03   31.41     0.000399       1.0014    1.0062    0.9925
 -176.74   97.58   71.54     0.000299       0.9970    1.0106    0.9925
 -175.07  104.69   70.00     0.000252       0.9971    1.0104    0.9926
 -174.03  112.74   67.42     0.000139       0.9974    1.0100    0.9927
    2.11   42.77  143.25     0.000463       1.0009    1.0062    0.9929
 -178.76   92.00   78.28     0.000458       0.9965    1.0109    0.9926
