MORPHOLOGY AT STRAIN =    0.0085  FOR PHASE  1
   1.004   1.007   0.989  <-- AXES OF PHASE ELLIPSOID
    0.19    0.00    0.00  <-- EULER ANGLES OF PHASE ELLIPSOID (deg)
   1.003   1.010   0.988  <-- AVERAGE OF GRAIN AXES FOR PHASE
   0.001   0.003   0.004  <-- STANDARD DEV OF AVG GRAIN AXES FOR PHASE
B      1148
  154.12   11.53  -68.94     0.000000       1.0001    1.0008    0.9992
    0.68    0.00    0.00     0.000000       1.0044    1.0111    0.9848
   90.04    0.00    0.00     0.000000       1.0038    1.0113    0.9851
  -21.24   13.70   -1.65     0.000000       1.0029    1.0109    0.9863
  -89.09   28.02  177.19     0.000145       1.0000    1.0017    0.9983
  -35.53   30.10  159.89     0.000161       1.0001    1.0016    0.9983
  -26.02   31.43  159.60     0.000850       1.0003    1.0014    0.9983
  -17.41   32.62  162.09     0.000146       1.0005    1.0013    0.9982
  -85.25   30.96  177.40     0.000338       1.0002    1.0047    0.9951
  -73.52   30.97  175.07     0.000403       1.0002    1.0047    0.9952
  -62.09   31.13  173.30     0.000062       1.0002    1.0046    0.9952
  -51.15   31.38  172.36     0.000355       1.0003    1.0046    0.9952
  -40.72   31.75  172.20     0.000441       1.0004    1.0045    0.9952
  -30.73   32.26  172.73     0.000782       1.0006    1.0044    0.9951
  -21.16   32.70   -5.81     0.000271       1.0008    1.0043    0.9950
  -73.61   26.62  176.21     0.000388       1.0006    1.0073    0.9921
  -62.63   26.73  174.95     0.000432       1.0006    1.0073    0.9922
  -51.98   26.89  174.28     0.000764       1.0007    1.0072    0.9922
  -41.65   27.11  174.19     0.000633       1.0008    1.0071    0.9921
  -21.79   27.70   -4.52     0.000402       1.0012    1.0069    0.9920
  -73.50   21.43  176.52     0.000389       1.0012    1.0093    0.9895
  -62.63   21.53  175.38     0.000702       1.0013    1.0093    0.9895
  -52.04   21.66  174.76     0.000649       1.0013    1.0092    0.9896
  -21.75   22.25   -4.29     0.000440       1.0018    1.0090    0.9894
  -12.04   22.40   -3.23     0.000541       1.0019    1.0089    0.9893
  -73.26   16.29  176.50     0.000063       1.0019    1.0107    0.9875
  -62.37   16.38  175.31     0.000250       1.0020    1.0107    0.9875
  -51.76   16.50  174.68     0.000058       1.0020    1.0106    0.9875
  -11.55   17.07   -3.59     0.000854       1.0026    1.0103    0.9872
  -84.32   11.43  178.29     0.000065       1.0026    1.0115    0.9861
  -73.01   11.50  176.39     0.000089       1.0026    1.0114    0.9861
  -10.84   12.09   -4.08     0.000806       1.0032    1.0111    0.9859
   -1.15   12.08   -3.14     0.000123       1.0032    1.0111    0.9859
  -84.87    7.20  179.05     0.000250       1.0032    1.0117    0.9854
   -9.75    7.71   -4.89     0.000444       1.0037    1.0114    0.9852
    0.10    7.72   -4.17     0.000677       1.0037    1.0113    0.9851
  -87.04    3.75 -178.59     0.000006       1.0036    1.0115    0.9851
  -74.83    3.76  178.46     0.000388       1.0036    1.0115    0.9851
  -62.89    3.79  176.12     0.000412       1.0036    1.0115    0.9851
   -7.69    4.07   -6.65     0.000165       1.0040    1.0113    0.9849
    2.66    4.09   -6.51     0.001189       1.0041    1.0113    0.9848
 -102.61    1.03 -162.89     0.000200       1.0038    1.0113    0.9850
  -45.03    0.95  178.78     0.000182       1.0039    1.0112    0.9850
    1.68    1.07  -15.86     0.000021       1.0042    1.0111    0.9848
   15.15    1.13  -18.86     0.001447       1.0043    1.0111    0.9848
  -50.62   28.79  167.78     0.000159       1.0000    1.0016    0.9983
  -38.20   30.35  163.33     0.000795       1.0002    1.0015    0.9983
  -27.60   31.87  161.10     0.000143       1.0004    1.0014    0.9982
  -86.09   30.72  178.62     0.000408       1.0001    1.0047    0.9952
  -74.70   30.77  176.80     0.000067       1.0001    1.0047    0.9952
  -63.58   30.95  175.48     0.000416       1.0002    1.0046    0.9952
  -52.75   31.27  174.68     0.000419       1.0002    1.0046    0.9952
  -41.74   31.84  173.62     0.000260       1.0004    1.0045    0.9951
  -31.32   32.38  173.55     0.000273       1.0006    1.0043    0.9950
  -85.21   26.42  178.44     0.000466       1.0006    1.0073    0.9921
  -74.28   26.47  177.12     0.000546       1.0006    1.0073    0.9922
  -63.53   26.61  176.17     0.000651       1.0006    1.0073    0.9922
  -53.07   26.80  175.77     0.000354       1.0007    1.0072    0.9922
  -31.96   27.47   -4.97     0.000392       1.0010    1.0070    0.9920
  -21.87   27.75   -4.47     0.000555       1.0012    1.0069    0.9920
  -84.71   21.27  178.23     0.000360       1.0012    1.0094    0.9896
  -73.89   21.32  177.00     0.000493       1.0011    1.0094    0.9896
  -63.23   21.44  176.12     0.000456       1.0012    1.0093    0.9896
  -21.74   22.27   -4.37     0.000629       1.0018    1.0090    0.9894
  -11.76   22.42   -3.69     0.000219       1.0019    1.0089    0.9893
  -73.37   16.21  176.58     0.000192       1.0018    1.0107    0.9876
  -21.20   16.98   -4.76     0.000068       1.0024    1.0104    0.9874
  -11.20   17.07   -4.13     0.000626       1.0025    1.0103    0.9873
  -83.54   11.45  177.30     0.000161       1.0026    1.0115    0.9861
  -72.61   11.50  175.84     0.000007       1.0026    1.0114    0.9862
  -10.89   12.06   -4.13     0.000486       1.0031    1.0111    0.9860
  -41.38    7.54  174.84     0.000111       1.0033    1.0115    0.9854
  -10.40    7.71   -4.33     0.000295       1.0036    1.0113    0.9853
  -84.94    3.84  179.09     0.000338       1.0036    1.0115    0.9851
  -73.68    3.85  177.11     0.000381       1.0036    1.0115    0.9851
  -62.79    3.88  175.85     0.000463       1.0036    1.0115    0.9851
  -42.48    3.97  176.05     0.000146       1.0038    1.0114    0.9850
   -9.82    4.10   -4.64     0.000116       1.0040    1.0113    0.9849
    0.82    4.12   -4.81     0.000001       1.0040    1.0113    0.9849
  -94.20    1.09 -171.50     0.000189       1.0039    1.0113    0.9850
   -9.15    1.11   -5.20     0.000144       1.0042    1.0111    0.9849
    6.04    1.16   -9.93     0.000088       1.0042    1.0111    0.9849
  -67.74   28.18  177.76     0.000155       1.0000    1.0017    0.9983
  -52.08   29.43  169.25     0.000744       1.0002    1.0015    0.9983
  -38.92   31.01  162.99     0.000141       1.0003    1.0014    0.9983
    1.31   35.53  -12.52     0.000160       1.0009    1.0011    0.9980
  -87.67   30.64 -179.19     0.000070       1.0001    1.0047    0.9952
  -76.50   30.74  179.29     0.000429       1.0001    1.0047    0.9952
  -65.53   30.98  178.20     0.000402       1.0002    1.0046    0.9952
  -42.17   32.01  174.11     0.000291       1.0005    1.0044    0.9951
  -31.39   32.54  173.50     0.000157       1.0007    1.0043    0.9950
   -1.32   33.52   -3.55     0.000507       1.0011    1.0041    0.9948
  -86.27   26.33  179.79     0.000587       1.0005    1.0074    0.9922
  -75.48   26.42  178.67     0.000569       1.0005    1.0073    0.9922
  -64.84   26.59  177.88     0.000072       1.0006    1.0073    0.9922
  -42.80   27.20  175.63     0.000199       1.0009    1.0071    0.9921
  -32.12   27.53   -4.85     0.000574       1.0011    1.0070    0.9920
  -21.77   27.80   -4.72     0.000109       1.0012    1.0069    0.9920
   -1.68   28.11   -3.29     0.001149       1.0014    1.0068    0.9918
  -85.54   21.17  179.19     0.000318       1.0011    1.0094    0.9896
  -74.85   21.26  178.13     0.000456       1.0011    1.0094    0.9896
  -32.14   22.09   -4.53     0.000062       1.0016    1.0090    0.9895
  -21.73   22.28   -4.52     0.000321       1.0018    1.0090    0.9894
   -1.79   22.43   -3.11     0.002138       1.0019    1.0089    0.9893
  -74.15   16.15  177.40     0.000003       1.0018    1.0107    0.9876
  -63.57   16.28  176.59     0.000018       1.0018    1.0107    0.9876
  -21.22   16.98   -4.89     0.000138       1.0024    1.0104    0.9874
  -11.52   16.99   -3.90     0.000443       1.0024    1.0103    0.9874
   -2.02   16.95   -2.67     0.003654       1.0025    1.0103    0.9874
  -83.92   11.38  177.57     0.000146       1.0025    1.0115    0.9862
  -31.64   11.94   -4.70     0.000085       1.0029    1.0112    0.9861
  -21.54   12.00   -4.21     0.000034       1.0030    1.0111    0.9861
  -11.72   12.02   -3.39     0.000972       1.0030    1.0111    0.9861
   -2.11   11.99   -2.37     0.005571       1.0030    1.0111    0.9861
  -61.56    7.42  174.33     0.000174       1.0032    1.0116    0.9854
  -32.67    7.63   -3.41     0.000208       1.0034    1.0114    0.9854
  -22.22    7.69   -3.23     0.000323       1.0035    1.0114    0.9853
  -12.11    7.71   -2.73     0.001533       1.0035    1.0113    0.9853
   -2.27    7.70   -2.03     0.008002       1.0036    1.0113    0.9853
  -82.23    3.89  176.02     0.000394       1.0036    1.0115    0.9851
  -71.90    3.90  175.01     0.000054       1.0036    1.0115    0.9851
  -52.68    3.98  175.52     0.000011       1.0037    1.0114    0.9850
  -35.36    4.06   -0.59     0.000060       1.0038    1.0113    0.9850
  -24.54    4.10   -0.71     0.000508       1.0039    1.0113    0.9850
  -13.56    4.12   -1.09     0.001875       1.0039    1.0113    0.9850
   -2.99    4.14   -1.18     0.010560       1.0040    1.0112    0.9850
  -82.01    1.13  175.97     0.000147       1.0039    1.0113    0.9850
  -60.83    1.10 -176.38     0.000106       1.0040    1.0113    0.9849
  -49.03    1.15   13.02     0.000287       1.0041    1.0112    0.9849
  -40.09    1.17   14.84     0.000658       1.0041    1.0112    0.9849
  -23.57    1.17    8.93     0.002033       1.0042    1.0111    0.9849
   -8.13    1.19    3.94     0.012711       1.0042    1.0111    0.9849
  -85.00   28.62 -172.07     0.000152       1.0000    1.0017    0.9983
  -67.21   28.98  176.63     0.000701       1.0001    1.0016    0.9983
  -51.50   30.18  166.98     0.000140       1.0002    1.0015    0.9983
   -6.09   35.20  147.75     0.000162       1.0007    1.0012    0.9981
    3.44   35.62  -27.15     0.000959       1.0008    1.0011    0.9980
  -89.43   30.79 -176.76     0.000420       1.0001    1.0047    0.9952
  -78.30   30.95 -178.22     0.000384       1.0002    1.0047    0.9952
  -53.63   31.69  175.70     0.000303       1.0004    1.0045    0.9951
  -42.01   32.20  173.70     0.000326       1.0006    1.0044    0.9951
  -10.37   33.35   -6.49     0.000549       1.0010    1.0042    0.9949
   -0.44   33.48   -5.21     0.002815       1.0010    1.0042    0.9948
  -87.60   26.36 -178.51     0.000518       1.0005    1.0074    0.9922
  -42.93   27.29  175.68     0.000329       1.0009    1.0070    0.9921
  -32.07   27.58   -5.05     0.000157       1.0011    1.0070    0.9920
  -21.55   27.82   -5.16     0.000175       1.0012    1.0069    0.9920
  -11.29   27.98   -4.79     0.001264       1.0013    1.0068    0.9919
   -1.50   28.01   -3.68     0.004569       1.0014    1.0068    0.9919
  -86.75   21.15 -179.39     0.000401       1.0011    1.0094    0.9896
  -43.20   21.88  176.25     0.000104       1.0015    1.0091    0.9895
  -32.31   22.10   -4.47     0.000231       1.0016    1.0090    0.9895
  -21.72   22.28   -4.68     0.000898       1.0017    1.0090    0.9894
  -11.61   22.36   -4.18     0.002068       1.0018    1.0089    0.9894
   -2.37   22.29   -2.48     0.006236       1.0018    1.0089    0.9894
  -43.17   16.64  176.30     0.000100       1.0021    1.0105    0.9875
  -32.12   16.82   -4.53     0.000539       1.0022    1.0104    0.9875
  -21.85   16.91   -4.30     0.001585       1.0023    1.0104    0.9874
  -12.32   16.92   -3.10     0.002735       1.0024    1.0103    0.9874
   -2.98   16.87   -1.67     0.008053       1.0024    1.0103    0.9874
  -53.08   11.68  175.89     0.000066       1.0026    1.0113    0.9862
  -42.92   11.83  176.02     0.000018       1.0027    1.0113    0.9862
  -32.65   11.92   -3.78     0.001002       1.0028    1.0112    0.9861
  -22.70   11.97   -3.12     0.001955       1.0029    1.0111    0.9861
  -13.05   11.98   -2.09     0.002990       1.0030    1.0111    0.9861
   -3.63   11.95   -0.86     0.009874       1.0030    1.0111    0.9861
  -72.28    7.31  175.12     0.000307       1.0031    1.0116    0.9855
  -61.55    7.41  174.06     0.000114       1.0032    1.0116    0.9854
  -52.17    7.50  174.78     0.000314       1.0032    1.0115    0.9854
  -43.21    7.58  176.28     0.000013       1.0033    1.0115    0.9854
  -34.48    7.64   -1.75     0.000771       1.0034    1.0114    0.9853
  -24.23    7.69   -1.35     0.001812       1.0035    1.0114    0.9853
  -14.35    7.70   -0.60     0.002644       1.0035    1.0113    0.9853
   -4.76    7.69    0.37     0.011943       1.0035    1.0113    0.9853
  -79.59    3.89  173.01     0.000150       1.0035    1.0115    0.9851
  -52.38    3.99  174.87     0.000373       1.0037    1.0114    0.9850
  -44.27    4.04  177.25     0.000114       1.0038    1.0114    0.9850
  -36.52    4.09    0.25     0.000634       1.0039    1.0113    0.9850
  -28.42    4.12    2.94     0.001322       1.0039    1.0113    0.9850
  -17.81    4.14    2.94     0.002264       1.0039    1.0113    0.9850
   -7.61    4.15    3.23     0.013377       1.0040    1.0113    0.9850
  -69.23    1.17  162.81     0.000055       1.0038    1.0113    0.9850
  -63.38    1.13  166.16     0.000747       1.0039    1.0113    0.9850
  -58.79    1.10  171.15     0.000957       1.0039    1.0113    0.9849
  -55.12    1.10  177.51     0.000289       1.0040    1.0113    0.9849
  -51.90    1.11 -175.25     0.000316       1.0041    1.0112    0.9849
  -48.62    1.15   12.21     0.000661       1.0042    1.0112    0.9848
  -44.87    1.21   19.25     0.000822       1.0042    1.0112    0.9848
  -36.99    1.26   22.00     0.002160       1.0042    1.0112    0.9848
  -22.80    1.25   18.27     0.013719       1.0042    1.0111    0.9848
 -100.34   29.87 -163.74     0.000148       1.0001    1.0017    0.9983
  -82.48   29.18 -175.77     0.000670       1.0001    1.0016    0.9983
  -65.16   29.60  172.44     0.000141       1.0002    1.0015    0.9983
  -13.96   34.56  145.13     0.000164       1.0006    1.0013    0.9981
   -4.06   35.14  145.28     0.000938       1.0007    1.0012    0.9981
    5.55   35.31  150.60     0.000156       1.0007    1.0012    0.9981
  -90.72   31.15 -174.89     0.000361       1.0002    1.0047    0.9951
  -65.47   31.49  177.93     0.000311       1.0004    1.0045    0.9951
  -53.15   31.88  174.82     0.000391       1.0005    1.0045    0.9951
  -41.46   32.33  172.69     0.000009       1.0006    1.0044    0.9950
  -19.85   33.07  171.56     0.000529       1.0008    1.0042    0.9950
   -9.68   33.27   -7.68     0.002301       1.0009    1.0042    0.9949
   -0.27   33.25   -5.47     0.000411       1.0009    1.0042    0.9949
  -54.14   27.08  176.89     0.000221       1.0008    1.0071    0.9921
  -42.80   27.35  175.36     0.000137       1.0010    1.0070    0.9921
  -31.87   27.60   -5.45     0.000661       1.0011    1.0070    0.9920
  -21.31   27.80   -5.60     0.001048       1.0012    1.0069    0.9920
  -11.10   27.91   -5.15     0.002586       1.0013    1.0069    0.9919
   -2.21   27.83   -2.71     0.000679       1.0013    1.0069    0.9919
  -54.65   21.72  177.70     0.000331       1.0014    1.0092    0.9895
  -43.34   21.92  176.29     0.000631       1.0015    1.0091    0.9895
  -32.39   22.11   -4.51     0.001335       1.0016    1.0090    0.9895
  -21.75   22.25   -4.77     0.001300       1.0017    1.0090    0.9894
  -12.36   22.26   -3.30     0.001880       1.0018    1.0089    0.9894
   -3.27   22.21   -1.40     0.000899       1.0018    1.0089    0.9894
  -87.37   16.02 -178.75     0.000033       1.0017    1.0108    0.9876
  -43.58   16.65  176.63     0.000943       1.0021    1.0105    0.9875
  -32.46   16.80   -4.29     0.001337       1.0022    1.0104    0.9875
  -22.69   16.86   -3.43     0.001027       1.0023    1.0104    0.9874
  -13.32   16.87   -2.03     0.000950       1.0024    1.0103    0.9874
   -4.15   16.84   -0.39     0.000961       1.0024    1.0103    0.9874
  -64.77   11.50  177.55     0.000307       1.0025    1.0114    0.9862
  -54.06   11.66  176.80     0.000237       1.0026    1.0113    0.9862
  -43.66   11.82  176.66     0.000624       1.0028    1.0113    0.9861
  -33.62   11.91   -2.88     0.000641       1.0029    1.0112    0.9861
  -23.88   11.95   -1.97     0.000593       1.0030    1.0111    0.9861
  -14.44   11.97   -0.70     0.000308       1.0030    1.0111    0.9861
   -5.22   11.95    0.77     0.000803       1.0030    1.0111    0.9861
  -85.30    7.16  178.68     0.000164       1.0030    1.0117    0.9855
  -74.00    7.23  176.74     0.000528       1.0030    1.0116    0.9855
  -52.51    7.47  174.91     0.000449       1.0032    1.0115    0.9854
  -43.72    7.56  176.58     0.000041       1.0034    1.0115    0.9853
  -25.97    7.68    0.27     0.000015       1.0035    1.0114    0.9853
   -7.09    7.70    2.64     0.000474       1.0036    1.0113    0.9853
  -51.71    3.95  173.90     0.000190       1.0037    1.0114    0.9850
  -43.94    4.01  176.60     0.000246       1.0038    1.0114    0.9850
  -36.46    4.06   -0.13     0.000069       1.0039    1.0113    0.9849
  -21.23    4.15    6.17     0.000166       1.0040    1.0113    0.9849
  -11.53    4.16    6.97     0.000284       1.0040    1.0113    0.9849
  -59.13    1.19  152.39     0.000010       1.0037    1.0114    0.9851
  -53.58    1.13  156.05     0.001046       1.0038    1.0114    0.9850
  -49.90    1.08  161.93     0.000838       1.0039    1.0113    0.9850
  -37.98    1.22   22.65     0.000197       1.0043    1.0112    0.9847
  -33.09    1.31   28.25     0.000010       1.0043    1.0111    0.9847
  -96.66   29.94 -169.27     0.000654       1.0002    1.0016    0.9982
  -79.29   29.45  178.50     0.000143       1.0002    1.0016    0.9983
  -22.61   33.59  146.15     0.000163       1.0004    1.0014    0.9982
  -12.16   34.33  144.76     0.000899       1.0005    1.0014    0.9982
   -2.37   34.66  146.88     0.000151       1.0006    1.0013    0.9981
  -77.31   31.44 -179.67     0.000321       1.0004    1.0046    0.9951
  -64.58   31.64  176.52     0.000403       1.0004    1.0045    0.9951
  -52.35   31.98  173.51     0.000049       1.0005    1.0044    0.9951
  -40.76   32.37  171.53     0.000217       1.0006    1.0044    0.9950
  -29.78   32.71  170.64     0.000481       1.0007    1.0043    0.9950
  -19.33   32.96  170.79     0.001522       1.0008    1.0043    0.9950
   -9.58   33.06   -7.73     0.000317       1.0008    1.0042    0.9950
  -65.45   26.95  178.43     0.000283       1.0008    1.0072    0.9921
  -53.77   27.15  176.29     0.000259       1.0009    1.0071    0.9921
  -42.49   27.38  174.86     0.000818       1.0010    1.0070    0.9920
  -31.65   27.59   -5.83     0.000833       1.0011    1.0070    0.9920
  -21.17   27.74   -5.85     0.000565       1.0011    1.0069    0.9920
  -11.91   27.78   -4.01     0.000375       1.0012    1.0069    0.9920
  -66.11   21.62  179.37     0.000404       1.0013    1.0093    0.9895
  -54.51   21.77  177.43     0.000840       1.0014    1.0092    0.9895
  -43.27   21.94  176.11     0.001101       1.0015    1.0091    0.9895
  -32.40   22.09   -4.58     0.000734       1.0016    1.0090    0.9894
  -13.16   22.22   -2.31     0.000427       1.0018    1.0089    0.9894
  -88.33   16.08 -177.67     0.000070       1.0018    1.0108    0.9876
  -66.35   16.36  179.52     0.000011       1.0019    1.0107    0.9875
  -55.13   16.52  178.12     0.000551       1.0020    1.0106    0.9875
  -43.73   16.66  176.71     0.000443       1.0021    1.0105    0.9875
  -14.18   16.87   -1.06     0.000399       1.0024    1.0103    0.9874
  -76.85   11.35  179.99     0.000299       1.0025    1.0115    0.9862
  -65.69   11.49  178.47     0.000252       1.0026    1.0114    0.9862
  -54.73   11.65  177.44     0.000139       1.0027    1.0114    0.9861
  -15.42   11.98    0.30     0.000463       1.0031    1.0111    0.9860
  -87.50    7.09 -179.09     0.000458       1.0030    1.0117    0.9855
