MORPHOLOGY AT STRAIN =    0.0025  FOR PHASE  1
   0.999   1.003   0.998  <-- AXES OF PHASE ELLIPSOID
  179.99   89.87   90.01  <-- EULER ANGLES OF PHASE ELLIPSOID (deg)
   1.001   1.006   0.993  <-- AVERAGE OF GRAIN AXES FOR PHASE
   0.002   0.002   0.001  <-- STANDARD DEV OF AVG GRAIN AXES FOR PHASE
B      1148
  179.98   89.98 -179.26     0.000000       1.0025    1.0060    0.9916
    0.08    0.00    0.00     0.000000       1.0019    1.0043    0.9939
  179.95   89.88   90.02     0.000000       0.9961    1.0108    0.9932
 -176.60  130.81   45.34     0.000000       1.0003    1.0069    0.9929
  179.97   90.16 -164.30     0.000145       1.0023    1.0061    0.9916
 -179.88   92.97 -168.50     0.000161       1.0024    1.0060    0.9916
 -179.91   93.46 -170.95     0.000850       1.0024    1.0060    0.9916
 -179.95   93.79 -173.73     0.000146       1.0025    1.0060    0.9916
  179.97   90.87 -143.45     0.000338       1.0013    1.0070    0.9917
 -179.83   92.97 -143.98     0.000403       1.0014    1.0070    0.9917
 -179.64   95.00 -145.32     0.000062       1.0015    1.0069    0.9917
 -179.50   96.91 -147.60     0.000355       1.0016    1.0068    0.9917
 -179.45   98.61 -150.91     0.000441       1.0018    1.0066    0.9917
 -179.52  100.03 -155.42     0.000782       1.0020    1.0063    0.9917
 -179.66  101.09 -161.26     0.000271       1.0022    1.0061    0.9917
 -179.47   94.94   48.36     0.000388       1.0001    1.0081    0.9919
 -179.04   98.22   46.88     0.000432       1.0003    1.0079    0.9919
 -178.75  101.34   44.44     0.000764       1.0006    1.0076    0.9919
 -178.65  104.19 -139.15     0.000633       1.0009    1.0073    0.9919
 -179.08  108.54 -151.12     0.000402       1.0017    1.0064    0.9920
 -178.90   96.72   57.47     0.000389       0.9990    1.0090    0.9921
 -178.13  101.19   55.92     0.000702       0.9992    1.0088    0.9921
 -177.60  105.57   53.37     0.000649       0.9995    1.0084    0.9922
 -178.19  116.25   37.03     0.000440       1.0011    1.0067    0.9923
 -178.93  118.19   26.12     0.000541       1.0018    1.0060    0.9923
 -178.10   98.10   65.04     0.000063       0.9980    1.0097    0.9924
 -176.86  103.66   63.50     0.000250       0.9981    1.0095    0.9924
 -176.02  109.43   60.93     0.000058       0.9984    1.0091    0.9925
 -178.19  127.12   32.35     0.000854       1.0013    1.0061    0.9926
 -179.15   92.98   72.27     0.000065       0.9971    1.0103    0.9926
 -177.08   98.74   71.66     0.000089       0.9972    1.0102    0.9927
    2.71   43.18  142.13     0.000806       1.0009    1.0061    0.9931
    0.81   41.57  -16.10     0.000123       1.0019    1.0051    0.9930
 -178.75   92.74   78.02     0.000250       0.9966    1.0106    0.9929
    3.70   32.43  137.39     0.000444       1.0005    1.0061    0.9935
    1.13   30.69  160.59     0.000677       1.0017    1.0049    0.9934
 -178.39   91.92   83.13     0.000006       0.9963    1.0107    0.9931
 -174.89   95.92   82.86     0.000388       0.9962    1.0107    0.9932
 -171.29  101.93   82.25     0.000412       0.9961    1.0106    0.9934
    4.59   20.35  133.74     0.000165       1.0001    1.0061    0.9938
    1.42   18.91  -22.17     0.001189       1.0016    1.0047    0.9937
 -178.19   90.60   87.79     0.000200       0.9961    1.0108    0.9932
   17.70   39.36   94.80     0.000182       0.9955    1.0098    0.9948
    5.03    6.97  -48.20     0.000021       0.9999    1.0061    0.9941
    1.68    6.41  -23.87     0.001447       1.0015    1.0046    0.9939
 -179.88   92.43 -166.85     0.000159       1.0024    1.0061    0.9916
 -179.90   93.01 -168.91     0.000795       1.0024    1.0060    0.9916
 -179.94   93.44 -171.37     0.000143       1.0024    1.0060    0.9916
 -179.98   90.92 -143.29     0.000408       1.0013    1.0071    0.9917
 -179.76   93.04 -143.92     0.000067       1.0014    1.0070    0.9917
 -179.57   95.08 -145.39     0.000416       1.0015    1.0069    0.9917
 -179.47   96.97 -147.79     0.000419       1.0016    1.0067    0.9917
 -179.48   98.64 -151.19     0.000260       1.0018    1.0065    0.9917
 -179.57  100.01 -155.73     0.000273       1.0020    1.0063    0.9917
 -179.88   91.61   49.11     0.000466       1.0001    1.0082    0.9919
 -179.38   94.98   48.41     0.000546       1.0001    1.0081    0.9919
 -178.96   98.27   46.84     0.000651       1.0003    1.0079    0.9919
 -178.70  101.39   44.30     0.000354       1.0006    1.0076    0.9919
 -178.84  106.63 -144.39     0.000392       1.0013    1.0068    0.9920
 -179.14  108.48 -151.32     0.000555       1.0017    1.0064    0.9920
 -179.69   92.23   58.24     0.000360       0.9989    1.0091    0.9921
 -178.78   96.71   57.51     0.000493       0.9990    1.0090    0.9921
 -178.03  101.19   55.89     0.000456       0.9992    1.0088    0.9921
 -178.28  116.20   36.87     0.000629       1.0011    1.0067    0.9923
 -178.97  118.10   26.06     0.000219       1.0018    1.0060    0.9923
 -177.98   98.03   65.07     0.000192       0.9980    1.0097    0.9924
 -177.11  124.37   43.74     0.000068       1.0004    1.0070    0.9927
 -178.24  127.03   32.29     0.000626       1.0014    1.0061    0.9926
 -179.08   92.91   72.32     0.000161       0.9971    1.0103    0.9926
 -176.97   98.61   71.68     0.000007       0.9972    1.0102    0.9927
    2.63   43.26  142.19     0.000486       1.0009    1.0061    0.9931
 -170.73  125.95   70.58     0.000111       0.9971    1.0094    0.9936
    3.57   32.50  137.48     0.000295       1.0005    1.0061    0.9935
 -178.36   91.83   83.15     0.000338       0.9963    1.0107    0.9931
 -174.84   95.71   82.87     0.000381       0.9962    1.0107    0.9932
 -171.24  101.68   82.23     0.000463       0.9961    1.0106    0.9934
 -167.09  131.71   77.56     0.000146       0.9962    1.0097    0.9942
    4.36   20.40  133.93     0.000116       1.0001    1.0061    0.9938
    1.36   19.01  -22.25     0.000001       1.0016    1.0047    0.9937
 -178.17   90.54   87.81     0.000189       0.9961    1.0108    0.9932
    4.25    7.01  -47.47     0.000144       0.9999    1.0061    0.9941
    1.36    6.50  -23.69     0.000088       1.0015    1.0046    0.9939
 -179.88   91.83 -165.59     0.000155       1.0023    1.0061    0.9916
 -179.90   92.47 -167.25     0.000744       1.0024    1.0061    0.9916
 -179.93   92.98 -169.33     0.000141       1.0024    1.0060    0.9916
 -179.99   93.80 -179.08     0.000160       1.0025    1.0060    0.9916
 -179.91   91.00 -143.23     0.000070       1.0013    1.0071    0.9917
 -179.69   93.12 -143.98     0.000429       1.0014    1.0070    0.9917
 -179.54   95.14 -145.58     0.000402       1.0015    1.0069    0.9917
 -179.53   98.62 -151.47     0.000291       1.0018    1.0065    0.9917
 -179.62   99.94 -155.95     0.000157       1.0020    1.0063    0.9917
 -179.94  101.87 -176.21     0.000507       1.0024    1.0059    0.9917
 -179.78   91.65   49.15     0.000587       1.0001    1.0082    0.9918
 -179.28   95.02   48.37     0.000569       1.0001    1.0081    0.9919
 -178.91   98.31   46.72     0.000072       1.0003    1.0079    0.9919
 -178.74  104.22 -139.54     0.000199       1.0009    1.0072    0.9919
 -178.92  106.58 -144.55     0.000574       1.0013    1.0068    0.9919
 -179.19  108.39 -151.37     0.000109       1.0017    1.0064    0.9919
 -179.83  110.19 -173.25     0.001149       1.0024    1.0058    0.9919
 -179.58   92.21   58.28     0.000318       0.9989    1.0091    0.9921
 -178.68   96.70   57.48     0.000456       0.9990    1.0090    0.9921
 -177.84  113.34   44.09     0.000062       1.0005    1.0073    0.9923
 -178.35  116.13   36.83     0.000321       1.0011    1.0067    0.9923
 -179.65  118.93 -170.17     0.002138       1.0022    1.0056    0.9922
 -177.86   97.96   65.05     0.000003       0.9980    1.0097    0.9924
 -176.70  103.59   63.41     0.000018       0.9981    1.0095    0.9925
 -177.20  124.31   43.69     0.000138       1.0004    1.0070    0.9926
 -178.26  126.95   32.38     0.000443       1.0014    1.0061    0.9926
 -179.42  128.23 -166.88     0.003654       1.0021    1.0054    0.9926
 -178.98   92.78   72.34     0.000146       0.9971    1.0103    0.9926
 -174.44  127.87   57.83     0.000085       0.9987    1.0082    0.9931
    4.23   46.74  130.30     0.000034       0.9997    1.0072    0.9931
    2.59   43.34  142.13     0.000972       1.0009    1.0061    0.9930
    0.86   41.74  -16.53     0.005571       1.0019    1.0051    0.9930
 -173.19  104.85   76.44     0.000174       0.9966    1.0104    0.9932
    7.92   43.43  115.97     0.000208       0.9979    1.0085    0.9936
    5.85   36.47  124.96     0.000323       0.9991    1.0074    0.9936
    3.50   32.56  137.45     0.001533       1.0005    1.0061    0.9935
    1.14   30.85  160.18     0.008002       1.0017    1.0049    0.9934
 -178.32   91.74   83.16     0.000394       0.9963    1.0107    0.9931
 -174.80   95.58   82.86     0.000054       0.9962    1.0107    0.9932
 -168.16  113.04   80.89     0.000011       0.9960    1.0103    0.9939
   10.49   31.76  110.20     0.000060       0.9971    1.0088    0.9942
    7.29   23.95  120.64     0.000508       0.9985    1.0076    0.9940
    4.20   20.45  133.98     0.001875       1.0001    1.0061    0.9938
    1.33   19.07  -22.50     0.010560       1.0016    1.0047    0.9937
 -178.15   90.52   87.82     0.000147       0.9961    1.0108    0.9932
 -165.08  100.97   87.15     0.000106       0.9955    1.0104    0.9942
   11.64   12.42  106.80     0.000287       0.9966    1.0089    0.9946
    7.01    8.37  119.24     0.000658       0.9981    1.0076    0.9943
    3.68    7.03  -47.02     0.002033       0.9999    1.0061    0.9940
    1.08    6.55  -23.69     0.012711       1.0015    1.0046    0.9939
 -179.89   91.17 -164.74     0.000152       1.0023    1.0061    0.9916
 -179.90   91.87 -165.99     0.000701       1.0023    1.0061    0.9916
 -179.93   92.45 -167.66     0.000140       1.0024    1.0061    0.9916
 -179.98   93.68 -176.30     0.000162       1.0025    1.0060    0.9916
 -179.96   93.77 -178.67     0.000959       1.0025    1.0060    0.9916
 -179.83   91.07 -143.29     0.000420       1.0013    1.0071    0.9917
 -179.65   93.18 -144.16     0.000384       1.0014    1.0070    0.9917
 -179.53   96.99 -148.30     0.000303       1.0016    1.0067    0.9917
 -179.58   98.56 -151.67     0.000326       1.0018    1.0065    0.9917
 -179.83  101.49 -168.14     0.000549       1.0024    1.0060    0.9917
 -179.90  101.84 -175.80     0.002815       1.0024    1.0059    0.9917
 -179.68   91.68   49.11     0.000518       1.0001    1.0082    0.9919
 -178.82  104.18 -139.68     0.000329       1.0009    1.0072    0.9919
 -178.98  106.50 -144.60     0.000157       1.0013    1.0068    0.9919
 -179.21  108.30 -151.28     0.000175       1.0017    1.0064    0.9919
 -179.48  109.53 -160.52     0.001264       1.0021    1.0060    0.9919
 -179.77  110.16 -172.84     0.004569       1.0024    1.0058    0.9919
 -179.47   92.19   58.25     0.000401       0.9989    1.0091    0.9921
 -177.66  109.75   49.21     0.000104       0.9999    1.0079    0.9922
 -177.93  113.28   44.04     0.000231       1.0005    1.0073    0.9922
 -178.38  116.04   36.90     0.000898       1.0011    1.0067    0.9922
 -178.95  117.93   26.39     0.002068       1.0018    1.0061    0.9922
 -179.59  118.89 -169.73     0.006236       1.0022    1.0056    0.9922
 -176.04  115.28   56.69     0.000100       0.9989    1.0085    0.9926
 -176.47  120.32   51.25     0.000539       0.9996    1.0078    0.9926
 -177.25  124.25   43.74     0.001585       1.0005    1.0070    0.9926
 -178.24  126.88   32.57     0.002735       1.0014    1.0061    0.9926
 -179.36  128.20 -166.47     0.008053       1.0021    1.0054    0.9926
 -174.06  112.78   67.56     0.000066       0.9975    1.0096    0.9930
 -173.90  120.79   63.56     0.000018       0.9980    1.0090    0.9931
 -174.58  127.90   57.76     0.001002       0.9987    1.0082    0.9931
    4.16   46.78  130.27     0.001955       0.9997    1.0072    0.9931
    2.60   43.39  141.96     0.002990       1.0009    1.0061    0.9930
    0.92   41.76  -16.93     0.009874       1.0019    1.0051    0.9930
 -175.75   97.79   77.53     0.000307       0.9966    1.0105    0.9930
 -173.22  104.94   76.37     0.000114       0.9965    1.0104    0.9932
 -171.46  114.75   74.23     0.000314       0.9967    1.0100    0.9934
 -171.12  126.42   70.30     0.000013       0.9971    1.0094    0.9936
    7.73   43.33  116.08     0.000771       0.9979    1.0086    0.9936
    5.74   36.48  124.96     0.001812       0.9991    1.0074    0.9936
    3.49   32.60  137.31     0.002644       1.0005    1.0061    0.9935
    1.19   30.88  159.77     0.011943       1.0017    1.0049    0.9934
 -178.28   91.67   83.16     0.000150       0.9963    1.0107    0.9931
 -168.28  113.47   80.82     0.000373       0.9959    1.0103    0.9939
 -167.58  132.74   77.23     0.000114       0.9962    1.0097    0.9942
   10.25   31.57  110.35     0.000634       0.9971    1.0088    0.9942
    7.14   23.93  120.69     0.001322       0.9985    1.0076    0.9940
    4.15   20.47  133.88     0.002264       1.0001    1.0061    0.9938
    1.36   19.08  -22.90     0.013377       1.0016    1.0047    0.9937
 -178.13   90.54   87.82     0.000055       0.9961    1.0108    0.9932
 -174.21   91.75   87.70     0.000747       0.9960    1.0108    0.9933
 -169.87   94.09   87.48     0.000957       0.9957    1.0107    0.9937
 -165.14  101.46   87.14     0.000289       0.9954    1.0104    0.9943
   16.68   34.44   95.58     0.000316       0.9955    1.0098    0.9948
   11.35   12.28  107.01     0.000661       0.9966    1.0089    0.9945
    6.81    8.35  119.33     0.000822       0.9981    1.0077    0.9943
    3.48    7.03  -46.96     0.002160       0.9999    1.0061    0.9940
    0.93    6.55  -23.91     0.013719       1.0015    1.0046    0.9939
 -179.91   90.48 -164.32     0.000148       1.0023    1.0061    0.9916
 -179.91   91.21 -165.14     0.000670       1.0023    1.0061    0.9916
 -179.93   91.84 -166.39     0.000141       1.0023    1.0061    0.9916
 -179.98   93.44 -173.68     0.000164       1.0025    1.0060    0.9916
 -179.96   93.65 -175.89     0.000938       1.0025    1.0060    0.9916
 -179.93   93.80 -178.26     0.000156       1.0025    1.0060    0.9916
 -179.78   91.13 -143.46     0.000361       1.0013    1.0070    0.9917
 -179.59   95.16 -146.05     0.000311       1.0015    1.0069    0.9917
 -179.59   96.93 -148.48     0.000391       1.0016    1.0067    0.9917
 -179.63   98.47 -151.73     0.000009       1.0018    1.0065    0.9917
 -179.73  100.75 -161.22     0.000529       1.0022    1.0061    0.9917
 -179.79  101.46 -167.71     0.002301       1.0024    1.0060    0.9917
 -179.86  101.87 -175.40     0.000411       1.0024    1.0059    0.9917
 -178.87  101.39   43.82     0.000221       1.0006    1.0075    0.9919
 -178.90  104.11 -139.73     0.000137       1.0009    1.0072    0.9919
 -179.02  106.42 -144.52     0.000661       1.0013    1.0068    0.9919
 -179.20  108.23 -151.07     0.001048       1.0017    1.0064    0.9919
 -179.43  109.50 -160.16     0.002586       1.0021    1.0060    0.9919
 -179.74  110.18 -172.45     0.000679       1.0023    1.0058    0.9919
 -177.77  105.65   52.89     0.000331       0.9995    1.0084    0.9922
 -177.77  109.72   49.17     0.000631       0.9999    1.0079    0.9922
 -177.98  113.22   44.10     0.001335       1.0005    1.0073    0.9922
 -178.37  115.98   37.07     0.001300       1.0011    1.0067    0.9922
 -178.90  117.90   26.68     0.001880       1.0018    1.0061    0.9922
 -179.55  118.91 -169.35     0.000899       1.0022    1.0056    0.9922
 -179.11   92.49   65.74     0.000033       0.9979    1.0098    0.9924
 -176.17  115.30   56.64     0.000943       0.9989    1.0085    0.9926
 -176.54  120.28   51.29     0.001337       0.9996    1.0078    0.9926
 -177.24  124.19   43.88     0.001027       1.0004    1.0070    0.9926
 -178.19  126.86   32.83     0.000950       1.0013    1.0061    0.9926
 -179.30  128.22 -166.07     0.000961       1.0021    1.0054    0.9926
 -175.19  105.20   70.03     0.000307       0.9972    1.0100    0.9928
 -174.21  112.93   67.47     0.000237       0.9975    1.0096    0.9930
 -174.05  120.89   63.51     0.000624       0.9980    1.0090    0.9931
 -174.67  127.90   57.78     0.000641       0.9987    1.0082    0.9931
    4.16   46.82  130.14     0.000593       0.9997    1.0072    0.9931
    2.66   43.41  141.72     0.000308       1.0009    1.0061    0.9930
    0.98   41.74  -17.33     0.000803       1.0019    1.0051    0.9930
 -178.50   92.26   78.03     0.000164       0.9966    1.0106    0.9929
 -175.75   97.80   77.48     0.000528       0.9966    1.0105    0.9930
 -171.62  115.04   74.15     0.000449       0.9966    1.0100    0.9934
 -171.29  126.62   70.23     0.000041       0.9971    1.0094    0.9936
    5.74   36.50  124.85     0.000015       0.9991    1.0075    0.9935
    1.26   30.85  159.39     0.000474       1.0017    1.0049    0.9934
 -168.42  114.02   80.77     0.000190       0.9959    1.0103    0.9939
 -167.76  133.15   77.15     0.000246       0.9962    1.0097    0.9942
   10.18   31.51  110.33     0.000069       0.9971    1.0088    0.9941
    4.24   20.45  133.64     0.000166       1.0001    1.0061    0.9938
    1.42   19.04  -23.25     0.000284       1.0016    1.0047    0.9937
 -178.11   90.60   87.80     0.000010       0.9961    1.0108    0.9932
 -174.21   91.92   87.69     0.001046       0.9960    1.0108    0.9933
 -169.90   94.46   87.48     0.000838       0.9957    1.0107    0.9937
    3.86    7.01  -47.48     0.000197       0.9999    1.0062    0.9940
    0.95    6.50  -24.22     0.000010       1.0015    1.0046    0.9939
 -179.92   90.52 -164.72     0.000654       1.0023    1.0061    0.9916
 -179.94   91.18 -165.53     0.000143       1.0023    1.0061    0.9916
 -179.97   93.08 -171.34     0.000163       1.0024    1.0060    0.9916
 -179.95   93.41 -173.27     0.000899       1.0025    1.0060    0.9916
 -179.93   93.68 -175.48     0.000151       1.0025    1.0060    0.9916
 -179.69   93.19 -144.61     0.000321       1.0014    1.0070    0.9917
 -179.65   95.10 -146.22     0.000403       1.0015    1.0068    0.9917
 -179.65   96.85 -148.54     0.000049       1.0016    1.0067    0.9917
 -179.66   98.38 -151.64     0.000217       1.0018    1.0065    0.9917
 -179.68   99.68 -155.68     0.000481       1.0020    1.0063    0.9917
 -179.70  100.72 -160.84     0.001522       1.0022    1.0061    0.9917
 -179.75  101.49 -167.34     0.000317       1.0023    1.0060    0.9917
 -179.05   98.31   46.27     0.000283       1.0003    1.0078    0.9919
 -178.96  101.33   43.78     0.000259       1.0006    1.0075    0.9919
 -178.95  104.04 -139.66     0.000818       1.0009    1.0072    0.9919
 -179.02  106.35 -144.35     0.000833       1.0013    1.0068    0.9919
 -179.15  108.19 -150.80     0.000565       1.0017    1.0064    0.9919
 -179.39  109.51 -159.81     0.000375       1.0021    1.0060    0.9919
 -178.15  101.26   55.44     0.000404       0.9992    1.0087    0.9922
 -177.88  105.65   52.85     0.000840       0.9995    1.0084    0.9922
 -177.84  109.68   49.21     0.001101       0.9999    1.0079    0.9922
 -177.99  113.16   44.23     0.000734       1.0005    1.0074    0.9922
 -178.84  117.92   26.97     0.000427       1.0017    1.0061    0.9922
 -179.08   92.46   65.65     0.000070       0.9979    1.0098    0.9924
 -176.90  103.74   63.11     0.000011       0.9981    1.0095    0.9925
 -176.37  109.65   60.47     0.000551       0.9984    1.0091    0.9926
 -176.26  115.29   56.67     0.000443       0.9989    1.0085    0.9926
 -178.12  126.88   33.08     0.000399       1.0013    1.0061    0.9926
 -176.86   98.50   71.47     0.000299       0.9971    1.0102    0.9927
 -175.31  105.35   69.96     0.000252       0.9972    1.0100    0.9928
 -174.35  113.06   67.43     0.000139       0.9975    1.0096    0.9930
    2.76   43.39  141.49     0.000463       1.0009    1.0061    0.9930
 -178.48   92.21   77.98     0.000458       0.9966    1.0106    0.9929
