MORPHOLOGY AT STRAIN =    1.0000  FOR PHASE  1
   0.605   2.692   0.605  <-- AXES OF PHASE ELLIPSOID
   57.54   90.00    0.00  <-- EULER ANGLES OF PHASE ELLIPSOID (deg)
   0.629   2.643   0.594  <-- AVERAGE OF GRAIN AXES FOR PHASE
   0.032   0.023   0.034  <-- STANDARD DEV OF AVG GRAIN AXES FOR PHASE
B       500
  132.46   90.03    0.50     0.002000       0.6124    2.6312    0.6118
  118.35   89.45   -0.67     0.002000       0.6242    2.6554    0.5947
   76.36   89.95   -0.98     0.002000       0.6172    2.6698    0.5981
  145.92   89.80 -179.13     0.002000       0.6555    2.6565    0.5659
   71.08   90.13    0.55     0.002000       0.6124    2.7834    0.5774
   55.08   89.78   -0.10     0.002000       0.5947    2.7879    0.5936
 -163.40   90.43 -179.21     0.002000       0.6316    2.6592    0.5868
  126.87   90.07    0.42     0.002000       0.6338    2.7745    0.5597
  112.72   90.16   -0.23     0.002000       0.6135    2.6262    0.6119
  170.09   90.57 -179.67     0.002000       0.6142    2.6363    0.6088
   60.78   89.67   -1.17     0.002000       0.6199    2.7733    0.5725
   96.52   90.17    0.11     0.002000       0.5946    2.7881    0.5937
 -133.88   90.60  179.81     0.002000       0.6156    2.6347    0.6078
  158.23   90.31 -179.11     0.002000       0.6166    2.6689    0.5988
 -175.70   90.33 -179.15     0.002000       0.6152    2.6621    0.6017
  176.91   90.15  179.98     0.002000       0.6014    2.7911    0.5862
 -145.37   90.07  179.96     0.002000       0.6032    2.7886    0.5850
 -163.05   89.78  178.77     0.002000       0.6396    2.6838    0.5740
 -169.52   89.40  179.47     0.002000       0.6141    2.6422    0.6075
 -158.77   89.99  178.58     0.002000       0.6475    2.7189    0.5594
  149.04   89.35  179.45     0.002000       0.6139    2.6455    0.6069
  113.14   90.28   -1.15     0.002000       0.6396    2.6754    0.5758
 -173.29   90.04 -179.87     0.002000       0.5945    2.7930    0.5926
   90.27   90.04   -0.95     0.002000       0.6160    2.6651    0.6003
  149.43   89.77  178.44     0.002000       0.6455    2.7473    0.5551
  113.85   90.50    0.64     0.002000       0.6260    2.6553    0.5929
   84.99   90.14    0.14     0.002000       0.5947    2.7878    0.5936
   67.61   90.13   -1.25     0.002000       0.6576    2.6705    0.5611
   91.33   89.97   -0.20     0.002000       0.5976    2.7897    0.5903
   78.19   90.54    0.06     0.002000       0.6159    2.6334    0.6079
  149.29   89.57  178.61     0.002000       0.6274    2.7672    0.5670
   75.05   90.48    0.24     0.002000       0.6149    2.6325    0.6091
   68.75   90.63   -0.36     0.002000       0.6162    2.6409    0.6057
  136.97   89.95 -178.81     0.002000       0.6278    2.7064    0.5797
   76.97   90.41   -0.38     0.002000       0.6143    2.6327    0.6096
   98.70   90.60   -0.55     0.002000       0.6143    2.6435    0.6070
   79.30   89.44   -0.62     0.002000       0.6129    2.6431    0.6085
  171.06   89.97 -178.59     0.002000       0.6636    2.6839    0.5531
   87.32   89.58   -1.01     0.002000       0.6227    2.6882    0.5886
  110.49   89.91   -0.32     0.002000       0.6142    2.7857    0.5752
  168.98   89.39 -179.97     0.002000       0.6192    2.6403    0.6030
 -150.68   90.20 -179.81     0.002000       0.5956    2.7922    0.5917
  119.10   90.16    1.18     0.002000       0.6280    2.7064    0.5795
   56.20   89.73    0.24     0.002000       0.6140    2.6272    0.6112
   56.09   89.44    0.74     0.002000       0.6215    2.6606    0.5960
 -152.08   89.95 -178.73     0.002000       0.7103    2.6478    0.5238
 -170.76   90.22 -179.78     0.002000       0.6561    2.6448    0.5680
  131.76   89.47    0.19     0.002000       0.6251    2.6441    0.5964
   64.79   89.64   -0.16     0.002000       0.6421    2.6453    0.5803
 -145.15   90.25  179.35     0.002000       0.6546    2.6507    0.5680
  176.72   90.30  178.77     0.002000       0.6407    2.7272    0.5636
   85.54   89.55    1.53     0.002000       0.6339    2.7587    0.5629
 -138.96   89.58  179.95     0.002000       0.6150    2.6295    0.6096
   77.38   89.86    1.48     0.002000       0.6407    2.7381    0.5613
   61.53   89.90    0.07     0.002000       0.6137    2.6245    0.6122
 -153.27   89.55  179.12     0.002000       0.6207    2.6724    0.5940
  126.82   89.74    0.84     0.002000       0.6136    2.6555    0.6049
   97.15   89.54    0.26     0.002000       0.6313    2.6459    0.5901
   68.21   90.09   -0.13     0.002000       0.5945    2.7868    0.5940
   46.94   89.99    0.19     0.002000       0.6151    2.7833    0.5749
   58.10   90.02    0.23     0.002000       0.5964    2.7897    0.5915
  132.09   89.79    0.86     0.002000       0.6139    2.6579    0.6040
   74.78   90.60    0.06     0.002000       0.6195    2.6398    0.6028
   53.53   89.84   -0.14     0.002000       0.5989    2.7909    0.5888
  126.77   90.49   -0.04     0.002000       0.6269    2.6433    0.5948
  158.29   89.78 -179.76     0.002000       0.6131    2.6272    0.6121
   93.91   89.55   -0.82     0.002000       0.6159    2.6615    0.6012
   77.10   89.90    0.17     0.002000       0.6137    2.6251    0.6120
  140.01   89.95  178.66     0.002000       0.6699    2.6687    0.5511
   50.68   90.49   -0.43     0.002000       0.6136    2.6359    0.6095
  174.84   90.40  178.94     0.002000       0.6239    2.6936    0.5862
  116.72   90.13    0.66     0.002000       0.6066    2.7829    0.5830
 -169.16   90.16 -179.23     0.002000       0.6088    2.7810    0.5813
   51.53   89.91   -1.45     0.002000       0.6701    2.6816    0.5482
  122.14   89.97   -0.46     0.002000       0.6178    2.7830    0.5724
 -170.61   89.90  179.82     0.002000       0.5977    2.7906    0.5900
   66.70   89.54   -0.88     0.002000       0.6293    2.6655    0.5875
   56.58   89.73   -0.60     0.002000       0.6129    2.6353    0.6104
 -156.62   90.36  178.75     0.002000       0.6389    2.7628    0.5577
   90.31   89.91   -0.87     0.002000       0.6130    2.6512    0.6065
   63.69   89.55    0.94     0.002000       0.6263    2.6746    0.5883
  153.31   89.95 -179.72     0.002000       0.6223    2.7796    0.5689
   51.35   89.65   -1.14     0.002000       0.6316    2.7109    0.5752
  175.87   90.24  178.80     0.002000       0.6282    2.7069    0.5793
   64.35   89.86   -0.05     0.002000       0.5948    2.7862    0.5939
  107.19   90.36    1.52     0.002000       0.6380    2.7474    0.5617
  177.60   89.82  179.47     0.002000       0.6586    2.6475    0.5652
   55.66   89.96    0.19     0.002000       0.6158    2.7831    0.5743
  128.97   90.33    0.39     0.002000       0.6127    2.6314    0.6115
 -161.68   90.66  179.69     0.002000       0.6183    2.6425    0.6033
   74.50   89.92   -1.36     0.002000       0.6621    2.7480    0.5410
  171.04   89.68 -178.53     0.002000       0.6387    2.7441    0.5617
  152.80   90.02  179.75     0.002000       0.5989    2.7896    0.5891
  145.48   90.34  179.69     0.002000       0.6135    2.6294    0.6112
 -139.20   90.14 -179.77     0.002000       0.5955    2.7901    0.5923
  100.26   89.86    0.88     0.002000       0.6141    2.6577    0.6039
 -177.63   89.44  179.61     0.002000       0.6145    2.6371    0.6083
   54.93   89.50    0.87     0.002000       0.6211    2.6737    0.5934
   93.97   90.52    0.32     0.002000       0.6142    2.6349    0.6092
 -159.30   89.78  179.19     0.002000       0.6241    2.7765    0.5680
   72.89   89.38   -0.23     0.002000       0.6158    2.6359    0.6074
   96.78   90.20   -0.20     0.002000       0.5943    2.7900    0.5935
   63.13   90.59    0.32     0.002000       0.6154    2.6375    0.6073
   49.03   90.62    0.34     0.002000       0.6185    2.6426    0.6031
   79.12   89.83   -0.07     0.002000       0.5947    2.7867    0.5939
  124.97   89.88    0.69     0.002000       0.7003    2.6442    0.5321
  144.83   90.04 -179.34     0.002000       0.6427    2.7694    0.5530
   51.04   90.04    0.20     0.002000       0.6137    2.6252    0.6120
  113.14   90.39    0.33     0.002000       0.6132    2.6314    0.6110
 -171.73   90.34 -178.90     0.002000       0.6286    2.7031    0.5797
   77.82   90.56    0.69     0.002000       0.6192    2.6587    0.5987
 -176.02   90.49 -179.27     0.002000       0.6144    2.6547    0.6043
   93.44   89.69   -0.08     0.002000       0.6141    2.6265    0.6113
  169.69   90.26 -179.29     0.002000       0.6114    2.6402    0.6107
   72.46   89.88   -1.39     0.002000       0.6424    2.7325    0.5610
   65.88   89.58   -0.05     0.002000       0.6149    2.6285    0.6100
   61.07   89.69    0.66     0.002000       0.6125    2.6378    0.6102
   54.07   89.40    0.40     0.002000       0.6145    2.6375    0.6083
   88.16   90.41   -0.96     0.002000       0.6218    2.6825    0.5907
  126.90   89.87   -1.32     0.002000       0.6919    2.6601    0.5353
  131.02   89.90    0.60     0.002000       0.6051    2.7840    0.5842
   84.36   89.94   -0.21     0.002000       0.5948    2.7875    0.5936
  147.11   89.87  178.38     0.002000       0.6880    2.6727    0.5358
  145.81   89.66 -179.61     0.002000       0.6130    2.6314    0.6111
  110.93   90.35    0.92     0.002000       0.6186    2.6752    0.5954
  160.69   89.84  179.41     0.002000       0.6623    2.6480    0.5619
   75.19   90.00   -0.14     0.002000       0.5948    2.7863    0.5939
   69.37   90.43    0.26     0.002000       0.6146    2.6313    0.6096
   69.85   89.86    0.07     0.002000       0.6138    2.6247    0.6120
   70.88   89.90   -0.40     0.002000       0.6304    2.7764    0.5623
   99.01   90.10   -0.02     0.002000       0.6045    2.7891    0.5837
   59.26   89.57   -0.83     0.002000       0.6336    2.6603    0.5846
 -141.78   90.14  179.95     0.002000       0.5989    2.7922    0.5884
 -157.10   90.48 -179.87     0.002000       0.6298    2.6441    0.5919
   94.18   90.49   -0.31     0.002000       0.6267    2.6454    0.5945
   74.63   89.68    0.60     0.002000       0.6129    2.6359    0.6102
 -178.63   90.08 -178.74     0.002000       0.6609    2.7496    0.5417
  176.39   89.61  179.00     0.002000       0.6278    2.6753    0.5867
   92.83   90.05   -0.47     0.002000       0.6131    2.7846    0.5764
  139.33   90.66 -179.61     0.002000       0.6164    2.6444    0.6047
 -147.18   90.39 -179.15     0.002000       0.6165    2.6646    0.5999
 -160.33   89.63  179.75     0.002000       0.6373    2.6454    0.5846
   94.26   89.97    0.69     0.002000       0.6453    2.7663    0.5513
  175.81   90.36 -178.90     0.002000       0.6276    2.7051    0.5802
  137.71   89.65  178.99     0.002000       0.6229    2.7742    0.5696
  143.01   90.63 -179.78     0.002000       0.6155    2.6380    0.6071
   66.99   90.62    0.43     0.002000       0.6189    2.6460    0.6020
   95.14   89.97    0.28     0.002000       0.6229    2.7795    0.5684
   69.04   89.94   -0.04     0.002000       0.5948    2.7855    0.5940
   89.13   89.35    0.24     0.002000       0.6181    2.6406    0.6039
  125.42   89.49   -0.11     0.002000       0.6147    2.6314    0.6095
  126.44   89.51    0.06     0.002000       0.6147    2.6307    0.6097
 -161.79   89.72  178.80     0.002000       0.6311    2.7127    0.5753
   80.51   90.43    0.78     0.002000       0.6153    2.6580    0.6026
   95.50   90.25    0.82     0.002000       0.6318    2.7728    0.5618
 -142.84   90.38  178.95     0.002000       0.6306    2.6803    0.5829
  142.21   90.47 -179.83     0.002000       0.6289    2.6447    0.5926
  126.97   89.59   -1.00     0.002000       0.6214    2.6850    0.5905
  157.59   89.85 -179.90     0.002000       0.5984    2.7910    0.5892
  166.58   90.06 -178.40     0.002000       0.6692    2.7294    0.5391
  130.87   90.56    0.56     0.002000       0.6220    2.6522    0.5974
 -144.55   90.18  179.07     0.002000       0.7133    2.6416    0.5229
   63.14   89.31   -0.47     0.002000       0.6159    2.6445    0.6052
   96.41   90.28    0.14     0.002000       0.6139    2.6271    0.6113
   92.65   89.45   -0.67     0.002000       0.6133    2.6474    0.6071
   52.88   90.36    0.06     0.002000       0.6148    2.6282    0.6102
   56.94   90.02    0.91     0.002000       0.6147    2.6591    0.6030
  151.82   89.81  179.82     0.002000       0.5962    2.7921    0.5911
   76.04   90.04    0.14     0.002000       0.5947    2.7866    0.5938
 -165.69   90.58  179.48     0.002000       0.6126    2.6396    0.6096
  123.03   89.58    0.78     0.002000       0.6144    2.6562    0.6040
 -143.03   89.61 -178.58     0.002000       0.6272    2.7667    0.5673
   96.48   89.97   -0.57     0.002000       0.6413    2.7694    0.5542
   71.70   90.06    1.26     0.002000       0.6614    2.7504    0.5411
  161.10   90.44  179.99     0.002000       0.6316    2.6441    0.5902
  137.14   90.29  179.07     0.002000       0.6435    2.6604    0.5756
  164.99   90.55 -179.93     0.002000       0.6150    2.6329    0.6089
   97.90   90.38   -0.88     0.002000       0.6340    2.6619    0.5839
   83.94   89.50   -0.78     0.002000       0.6161    2.6601    0.6014
 -145.98   89.88  179.09     0.002000       0.6420    2.7675    0.5540
   61.14   90.29    0.09     0.002000       0.6451    2.6449    0.5776
  111.33   90.10   -0.22     0.002000       0.5966    2.7905    0.5911
  111.88   90.55   -0.71     0.002000       0.6169    2.6562    0.6015
   80.72   90.24    0.25     0.002000       0.6139    2.6276    0.6113
 -176.59   89.73 -179.39     0.002000       0.6117    2.6365    0.6113
   51.69   90.43    0.14     0.002000       0.6320    2.6444    0.5898
  115.73   90.28    0.81     0.002000       0.6133    2.6538    0.6056
 -176.09   89.81 -179.09     0.002000       0.6159    2.6665    0.6001
 -147.84   90.53 -179.24     0.002000       0.6204    2.6633    0.5964
  104.70   89.73    1.21     0.002000       0.6369    2.7227    0.5679
  147.45   90.56 -179.32     0.002000       0.6162    2.6582    0.6017
   78.69   90.29   -0.07     0.002000       0.6144    2.6268    0.6109
   47.34   90.61   -0.12     0.002000       0.6168    2.6369    0.6061
   82.26   89.88   -0.20     0.002000       0.5948    2.7878    0.5935
  144.28   90.08 -178.71     0.002000       0.6435    2.7073    0.5653
  162.77   89.99 -179.84     0.002000       0.6139    2.7837    0.5759
   54.13   89.90    0.41     0.002000       0.6313    2.7759    0.5616
  136.27   89.91 -179.89     0.002000       0.5991    2.7900    0.5888
  143.52   89.43  179.27     0.002000       0.6184    2.6604    0.5991
  174.34   90.44 -179.73     0.002000       0.6319    2.6460    0.5895
  171.78   90.11  178.35     0.002000       0.6482    2.7254    0.5574
   81.34   89.62    0.14     0.002000       0.6145    2.6281    0.6104
 -154.26   89.35 -179.68     0.002000       0.6172    2.6428    0.6043
  170.23   90.01  179.82     0.002000       0.5999    2.7903    0.5879
   71.93   90.03    0.34     0.002000       0.6083    2.7870    0.5805
 -154.67   90.51  179.14     0.002000       0.6202    2.6715    0.5948
 -142.47   90.03  178.58     0.002000       0.6570    2.6909    0.5572
  169.77   90.01  179.37     0.002000       0.6422    2.7680    0.5537
  170.33   90.44 -178.82     0.002000       0.6319    2.7670    0.5630
  178.47   90.46  179.95     0.002000       0.6144    2.6297    0.6102
  176.56   89.52 -179.58     0.002000       0.6278    2.6485    0.5928
  103.73   89.95   -1.43     0.002000       0.6551    2.6982    0.5573
 -141.36   89.92 -179.03     0.002000       0.6172    2.6705    0.5979
   94.69   89.91    0.23     0.002000       0.5942    2.7888    0.5939
   73.82   90.06    0.20     0.002000       0.5949    2.7878    0.5934
   92.22   90.04    1.65     0.002000       0.6700    2.6940    0.5457
 -154.88   89.44  179.93     0.002000       0.6158    2.6340    0.6078
   89.88   89.75    1.09     0.002000       0.6235    2.6931    0.5867
  155.47   90.00  178.86     0.002000       0.6225    2.6916    0.5880
   71.64   89.69    1.19     0.002000       0.6400    2.7261    0.5644
  171.99   90.26  179.10     0.002000       0.6145    2.6599    0.6030
 -162.26   90.11 -179.74     0.002000       0.6190    2.7822    0.5714
 -161.20   89.41 -179.86     0.002000       0.6155    2.6353    0.6078
 -154.57   90.59 -179.69     0.002000       0.6151    2.6362    0.6080
   77.30   89.70    0.06     0.002000       0.5947    2.7897    0.5932
  105.96   89.59    0.86     0.002000       0.6172    2.6679    0.5985
   54.10   90.05    1.23     0.002000       0.6604    2.7519    0.5417
  119.23   90.04   -1.25     0.002000       0.6302    2.7114    0.5764
  162.80   90.64  179.42     0.002000       0.6149    2.6483    0.6053
   68.52   89.96   -0.07     0.002000       0.5948    2.7856    0.5940
 -162.43   90.17  179.96     0.002000       0.6018    2.7907    0.5859
  147.65   90.19  179.29     0.002000       0.6114    2.7816    0.5787
   77.91   90.04   -0.07     0.002000       0.6020    2.7892    0.5861
 -148.78   90.59  179.61     0.002000       0.6141    2.6369    0.6088
   88.59   89.68    0.84     0.002000       0.6146    2.6575    0.6035
 -151.56   89.88  179.91     0.002000       0.6008    2.7905    0.5870
  129.11   90.18   -1.29     0.002000       0.6175    2.7727    0.5749
 -147.09   90.41  178.43     0.002000       0.6307    2.7621    0.5651
  101.11   89.77   -1.71     0.002000       0.6324    2.7573    0.5646
   52.27   89.91    0.24     0.002000       0.5957    2.7894    0.5922
  109.76   89.94    0.09     0.002000       0.6005    2.7894    0.5875
  135.26   89.97  179.11     0.002000       0.6861    2.6497    0.5420
  103.85   90.53   -0.68     0.002000       0.6143    2.6492    0.6057
 -153.75   90.00 -179.62     0.002000       0.6325    2.7741    0.5610
   59.14   89.90    0.23     0.002000       0.5959    2.7896    0.5920
   56.20   90.39    0.75     0.002000       0.6129    2.6472    0.6075
   81.97   89.56   -0.86     0.002000       0.6171    2.6659    0.5991
  169.50   89.46  179.66     0.002000       0.6144    2.6353    0.6089
   58.07   89.74    0.35     0.002000       0.6138    2.6286    0.6111
 -163.99   90.08  179.73     0.002000       0.6189    2.7815    0.5717
  173.29   89.99  179.84     0.002000       0.6112    2.7849    0.5781
 -149.44   90.03  179.83     0.002000       0.6132    2.7841    0.5765
 -164.48   90.22 -178.64     0.002000       0.6454    2.7550    0.5536
 -136.80   90.06 -178.65     0.002000       0.6611    2.7481    0.5418
  114.62   89.46    0.05     0.002000       0.6151    2.6321    0.6089
   76.88   90.52   -0.67     0.002000       0.6139    2.6475    0.6065
 -179.63   89.82 -179.14     0.002000       0.7119    2.6417    0.5239
 -149.14   89.37  179.57     0.002000       0.6169    2.6435    0.6044
   76.94   89.57   -0.34     0.002000       0.6140    2.6315    0.6101
  119.01   90.60   -0.11     0.002000       0.6195    2.6402    0.6026
 -172.55   90.41 -178.43     0.002000       0.6328    2.7584    0.5640
   91.67   89.90   -0.02     0.002000       0.6051    2.7883    0.5833
   73.61   90.62   -0.57     0.002000       0.6162    2.6490    0.6038
   67.58   90.45   -0.38     0.002000       0.6307    2.6472    0.5904
  151.62   89.72 -178.88     0.002000       0.6359    2.6811    0.5778
   85.83   89.75    0.40     0.002000       0.6136    2.6298    0.6110
   85.39   89.72   -1.58     0.002000       0.6406    2.7437    0.5602
  170.10   89.96 -179.60     0.002000       0.6335    2.7735    0.5602
 -145.70   89.96 -178.30     0.002000       0.6741    2.7192    0.5372
   87.66   89.82    0.92     0.002000       0.6160    2.6652    0.6003
  132.40   89.40   -0.15     0.002000       0.6154    2.6351    0.6079
  128.83   89.35    0.53     0.002000       0.6157    2.6480    0.6046
   72.11   89.57   -0.62     0.002000       0.6126    2.6386    0.6099
   96.43   89.41   -0.34     0.002000       0.6228    2.6452    0.5984
   81.83   89.84   -0.04     0.002000       0.6137    2.6247    0.6121
   69.58   89.36    0.08     0.002000       0.6191    2.6395    0.6032
  165.84   89.59  179.60     0.002000       0.6336    2.6474    0.5876
