MORPHOLOGY AT STRAIN =    1.0000  FOR PHASE  1
   0.605   2.692   0.605  <-- AXES OF PHASE ELLIPSOID
 -167.10   90.00  180.00  <-- EULER ANGLES OF PHASE ELLIPSOID (deg)
   0.725   2.773   0.514  <-- AVERAGE OF GRAIN AXES FOR PHASE
   0.143   0.210   0.183  <-- STANDARD DEV OF AVG GRAIN AXES FOR PHASE
B       500
  144.79   89.16 -174.55     0.002000       0.7307    2.0114    0.6753
  143.43   88.04  171.87     0.002000       0.8045    2.5597    0.4787
   77.42   89.93   -8.48     0.002000       0.8577    2.8386    0.4031
  122.38   88.65    7.20     0.002000       0.8673    2.7740    0.4079
   72.25   90.13    0.01     0.002000       0.5711    3.5459    0.4817
  174.12   90.70  179.43     0.002000       0.5347    3.4601    0.5280
 -139.29   91.65 -172.21     0.002000       0.8343    2.6737    0.4410
  128.47   89.85   -0.94     0.002000       0.6343    3.5293    0.4355
  130.04   92.36   -1.57     0.002000       0.7353    1.9241    0.7021
 -177.78   93.87 -175.10     0.002000       0.7473    2.0838    0.6368
   55.34   89.42   -0.83     0.002000       0.5910    3.5267    0.4681
  145.05   90.09 -179.16     0.002000       0.5387    3.4627    0.5237
 -144.94   94.52  176.34     0.002000       0.7558    2.0449    0.6418
  165.14   90.54 -171.49     0.002000       0.8565    2.7988    0.4097
 -168.04   90.72 -171.46     0.002000       0.8262    2.6707    0.4460
  171.12   90.33  179.09     0.002000       0.5500    3.5432    0.5007
 -149.35   90.23  178.82     0.002000       0.5610    3.5099    0.4957
 -146.05   88.92  174.67     0.002000       0.8164    3.1802    0.3762
 -150.23   87.19  173.11     0.002000       0.7442    2.2171    0.6003
 -167.89   88.87  177.84     0.002000       0.7042    3.4337    0.4033
  173.62   87.71  172.31     0.002000       0.7517    2.2996    0.5724
   90.88   91.05   -6.55     0.002000       0.8592    3.0463    0.3736
 -178.57   90.17 -179.19     0.002000       0.5336    3.5453    0.5158
   89.99   90.13   -8.63     0.002000       0.8436    2.7497    0.4237
  144.90   88.99  178.74     0.002000       0.6885    3.4794    0.4069
  138.41   92.00 -172.05     0.002000       0.8026    2.5452    0.4826
  131.96   89.96    0.82     0.002000       0.5366    3.4594    0.5262
 -135.15   89.09 -174.07     0.002000       0.8486    3.0874    0.3730
   97.39   89.97   -1.02     0.002000       0.5463    3.4867    0.5127
   82.12   94.86    1.33     0.002000       0.7621    2.0082    0.6484
  142.56   89.20  178.67     0.002000       0.6256    3.5064    0.4447
   86.45   93.82    3.76     0.002000       0.7419    2.0138    0.6642
 -128.22   86.23 -174.29     0.002000       0.7495    2.1584    0.6125
  138.39   89.78 -176.02     0.002000       0.6992    3.3498    0.4171
   64.34   92.91   -4.73     0.002000       0.7338    2.0262    0.6674
   77.24   92.36   -7.04     0.002000       0.7419    2.2367    0.5967
  108.68   88.93   -7.69     0.002000       0.7401    2.2583    0.5924
 -179.39   90.99 -176.48     0.002000       0.7597    3.3178    0.3871
   91.69   89.15   -6.42     0.002000       0.8328    3.0895    0.3801
  109.73   89.90    0.49     0.002000       0.5743    3.5480    0.4787
  167.08   84.51 -179.20     0.002000       0.7977    2.0998    0.5916
 -161.48   90.75 -179.31     0.002000       0.5351    3.5175    0.5186
  117.34   90.34    3.95     0.002000       0.6992    3.3469    0.4175
 -136.70   91.91  176.75     0.002000       0.7322    1.9405    0.6990
 -147.91   91.37  171.65     0.002000       0.8228    2.6471    0.4519
 -151.35   90.22 -177.11     0.002000       0.8270    3.2558    0.3622
 -166.63   93.55 -177.18     0.002000       0.8544    2.3570    0.4900
  127.62   85.01    3.07     0.002000       0.8040    2.1971    0.5603
   68.31   85.76   -2.22     0.002000       0.8384    2.2795    0.5170
 -164.77   92.02  173.19     0.002000       0.8363    2.5946    0.4536
 -172.41   91.02  177.13     0.002000       0.6867    3.4095    0.4169
  101.54   88.99    1.21     0.002000       0.6375    3.4876    0.4388
 -145.23   85.72 -179.88     0.002000       0.7524    1.9626    0.6724
   85.88   89.50    2.03     0.002000       0.6137    3.4798    0.4571
 -144.61   90.30  178.85     0.002000       0.7262    1.9038    0.7187
 -138.99   88.94  171.83     0.002000       0.8674    2.8456    0.3974
  120.35   89.28    8.55     0.002000       0.7899    2.5428    0.4910
   90.91   85.53    3.93     0.002000       0.8092    2.2626    0.5401
  168.61   90.41 -179.53     0.002000       0.5373    3.4459    0.5277
   45.35   90.01   -1.10     0.002000       0.5880    3.5186    0.4716
   52.19   90.19    1.03     0.002000       0.5428    3.4841    0.5163
  127.38   89.44    8.61     0.002000       0.8056    2.5974    0.4709
   76.93   95.35    1.13     0.002000       0.7886    2.0872    0.6022
   48.90   89.40   -0.86     0.002000       0.5445    3.5105    0.5107
  127.65   95.12   -0.07     0.002000       0.8195    2.1713    0.5562
  155.61   87.63 -177.11     0.002000       0.7368    1.9402    0.6948
  107.17   89.14   -8.52     0.002000       0.8215    2.6551    0.4514
   92.47   88.68    1.54     0.002000       0.7271    1.9112    0.7149
  159.75   89.09  174.88     0.002000       0.8191    3.1758    0.3754
 -157.12   88.10 -173.66     0.002000       0.7337    2.0990    0.6439
  171.98   90.80  174.07     0.002000       0.8169    3.1504    0.3798
  119.90   90.06    0.31     0.002000       0.5632    3.5498    0.4879
 -168.18   90.26 -179.51     0.002000       0.5709    3.5473    0.4817
 -136.87   89.09 -176.59     0.002000       0.7607    3.3169    0.3867
  126.93   89.79    0.20     0.002000       0.5871    3.5507    0.4678
 -176.21   89.51  178.93     0.002000       0.5495    3.5050    0.5069
   91.94   88.71   -8.04     0.002000       0.8600    2.7966    0.4082
   68.01   88.94   -6.23     0.002000       0.7273    2.0873    0.6533
 -154.42   90.95  178.88     0.002000       0.6567    3.4941    0.4250
   94.91   89.97   -8.44     0.002000       0.7657    2.4510    0.5263
 -136.62   91.07  172.23     0.002000       0.8723    2.9138    0.3855
  153.76   89.87  178.79     0.002000       0.6117    3.5298    0.4517
   47.06   88.85   -3.61     0.002000       0.7216    3.3361    0.4057
  178.09   90.54  175.77     0.002000       0.7178    3.3312    0.4085
  168.97   90.29  179.49     0.002000       0.5361    3.4393    0.5299
   91.47   90.87    1.73     0.002000       0.6431    3.4692    0.4374
 -169.42   87.36  174.25     0.002000       0.8387    2.5088    0.4682
   54.40   89.92   -1.09     0.002000       0.5891    3.5177    0.4708
  154.66   91.14 -174.52     0.002000       0.7323    2.0149    0.6727
 -176.09   94.28  174.58     0.002000       0.7674    2.1837    0.5910
   75.33   90.48   -0.23     0.002000       0.6998    3.4957    0.3983
 -176.17   88.90 -178.04     0.002000       0.6770    3.4478    0.4179
  147.91   89.97 -179.69     0.002000       0.5442    3.5597    0.5036
  143.67   93.17  176.67     0.002000       0.7401    1.9732    0.6799
 -152.00   90.63 -179.22     0.002000       0.5401    3.4868    0.5185
   97.79   89.60    8.58     0.002000       0.8036    2.5940    0.4728
 -166.73   86.05  174.82     0.002000       0.7476    2.1022    0.6309
 -140.27   90.99  171.87     0.002000       0.8677    2.8600    0.3952
  117.40   92.85    5.53     0.002000       0.7369    2.0666    0.6514
 -160.98   89.50  179.70     0.002000       0.6041    3.5351    0.4567
   82.85   85.43   -3.63     0.002000       0.7541    2.0607    0.6383
  146.32   91.00 -179.85     0.002000       0.5319    3.4870    0.5265
   76.94   93.95    4.92     0.002000       0.7452    2.0954    0.6350
   59.43   94.41    4.97     0.002000       0.7630    2.1729    0.5975
  149.99   89.99  179.26     0.002000       0.5368    3.4465    0.5281
  143.64   91.16 -174.15     0.002000       0.8869    2.7317    0.4049
  146.17   89.55  179.53     0.002000       0.6506    3.5274    0.4248
 -148.86   88.64  178.25     0.002000       0.7295    1.9130    0.7119
  140.21   91.72 -174.73     0.002000       0.7332    2.0124    0.6727
 -169.73   91.04 -175.31     0.002000       0.7782    3.2386    0.3876
  100.58   91.46    8.24     0.002000       0.8037    2.5792    0.4754
 -162.03   91.32 -171.65     0.002000       0.7812    2.5043    0.5044
  107.53   87.23   -1.58     0.002000       0.7371    1.9292    0.6985
 -177.32   90.58 -172.51     0.002000       0.7362    2.2003    0.6116
   66.19   89.57   -2.29     0.002000       0.6220    3.4692    0.4523
   65.86   86.09   -0.40     0.002000       0.7452    1.9513    0.6829
 -138.88   90.27  172.90     0.002000       0.7301    2.1478    0.6321
 -149.43   92.75  173.67     0.002000       0.7385    2.1256    0.6315
   80.37   90.90   -7.25     0.002000       0.8611    2.9890    0.3804
  113.20   90.80   -4.34     0.002000       0.7999    3.2100    0.3802
  131.77   89.81    0.14     0.002000       0.5586    3.5520    0.4917
  124.62   90.28   -0.74     0.002000       0.5359    3.4550    0.5276
  145.05   90.65  177.29     0.002000       0.7706    3.3507    0.3776
  138.85   87.23    4.65     0.002000       0.7352    2.0098    0.6717
  118.40   90.61    8.11     0.002000       0.8660    2.8948    0.3911
  176.21   87.72  173.88     0.002000       0.8445    2.5632    0.4548
  155.53   90.52  179.93     0.002000       0.5354    3.4401    0.5305
   79.13   93.55    3.64     0.002000       0.7384    1.9970    0.6731
   70.75   88.70    0.76     0.002000       0.7266    1.9062    0.7173
   70.78   89.96    0.87     0.002000       0.6238    3.5309    0.4427
  101.85   90.31    0.99     0.002000       0.5601    3.5246    0.4943
   84.81   88.49   -7.88     0.002000       0.8453    2.7183    0.4278
 -156.32   90.30  179.13     0.002000       0.5412    3.5489    0.5080
 -155.34   94.87 -178.13     0.002000       0.8188    2.2093    0.5469
   86.50   94.47   -4.45     0.002000       0.7933    2.2417    0.5563
   57.87   89.13    6.58     0.002000       0.7276    2.1035    0.6479
 -178.49   89.58  179.92     0.002000       0.7004    3.5105    0.3962
 -163.23   88.89  172.41     0.002000       0.8745    2.9450    0.3802
   91.59   90.07    0.15     0.002000       0.5724    3.5494    0.4801
  159.70   93.39 -173.41     0.002000       0.7565    2.2351    0.5855
 -138.97   90.86 -171.57     0.002000       0.8357    2.7063    0.4349
 -155.89   85.68  176.74     0.002000       0.8262    2.2845    0.5236
   94.87   89.96   -0.93     0.002000       0.6697    3.5175    0.4137
  173.99   90.86 -175.45     0.002000       0.7584    3.2658    0.3944
  136.85   89.35  179.19     0.002000       0.6107    3.5273    0.4528
  154.89   94.53 -175.75     0.002000       0.7614    2.0936    0.6220
   85.46   93.39    6.59     0.002000       0.7581    2.2655    0.5762
   96.25   89.89   -1.15     0.002000       0.6100    3.5210    0.4541
  164.21   90.12  179.79     0.002000       0.5370    3.4303    0.5304
   82.93   85.09    3.79     0.002000       0.7698    2.1249    0.6058
  133.46   85.42  177.96     0.002000       0.7581    1.9925    0.6571
  130.81   85.35    0.25     0.002000       0.7590    1.9793    0.6608
 -168.02   89.17  176.33     0.002000       0.7017    3.3636    0.4138
   95.18   90.89    8.46     0.002000       0.8000    2.5783    0.4779
   94.75   90.56    0.34     0.002000       0.6246    3.5204    0.4435
 -162.58   91.03  173.03     0.002000       0.8653    3.0216    0.3741
  147.81   94.73 -176.85     0.002000       0.8142    2.2216    0.5469
  132.49   89.18   -7.02     0.002000       0.8526    3.0364    0.3780
  158.75   89.45 -179.08     0.002000       0.5493    3.5153    0.5055
  168.07   89.57 -179.51     0.002000       0.7304    3.4788    0.3834
  154.12   92.40 -172.21     0.002000       0.7818    2.4485    0.5158
   51.45   90.64    4.88     0.002000       0.8530    3.0565    0.3748
   85.50   87.11   -6.87     0.002000       0.7480    2.2481    0.5887
  114.84   92.25    2.71     0.002000       0.7349    1.9362    0.6980
  117.33   88.86   -8.15     0.002000       0.7522    2.3559    0.5580
   48.02   93.79    0.24     0.002000       0.7451    1.9462    0.6848
   57.26   90.10    8.65     0.002000       0.8137    2.6312    0.4600
  159.35   89.44  178.99     0.002000       0.5405    3.5269    0.5120
  146.57   89.49 -179.64     0.002000       0.5355    3.4439    0.5298
  161.32   91.40  172.63     0.002000       0.7383    2.1906    0.6126
  111.41   88.87    8.42     0.002000       0.7904    2.5406    0.4912
 -136.44   89.35 -178.64     0.002000       0.6194    3.5013    0.4499
   97.43   89.97    1.02     0.002000       0.6611    3.5207    0.4188
   72.55   89.61   -0.08     0.002000       0.6982    3.5002    0.3987
  161.34   94.85 -179.93     0.002000       0.8313    2.2096    0.5385
  112.21   91.30   -7.65     0.002000       0.8643    2.7955    0.4062
  166.24   94.89 -178.91     0.002000       0.7672    2.0058    0.6448
   72.77   91.39   -7.87     0.002000       0.8524    2.7500    0.4191
   98.94   88.97   -8.44     0.002000       0.8116    2.6194    0.4634
 -149.31   89.39  179.88     0.002000       0.6489    3.5195    0.4269
   62.82   94.18    1.29     0.002000       0.8468    2.2791    0.5119
  120.69   90.46   -0.95     0.002000       0.5448    3.4947    0.5128
   93.86   91.63   -8.16     0.002000       0.7864    2.5175    0.4983
   96.96   91.63    3.44     0.002000       0.7298    1.9439    0.7001
  161.54   89.70 -173.09     0.002000       0.7325    2.1200    0.6385
   53.86   94.80    1.91     0.002000       0.8220    2.2190    0.5423
  128.23   90.40    8.59     0.002000       0.7803    2.5090    0.5041
  178.43   89.63 -171.38     0.002000       0.8499    2.7694    0.4174
   51.82   88.63   -8.18     0.002000       0.8306    2.6776    0.4424
  115.52   89.08    2.67     0.002000       0.6605    3.4248    0.4316
  166.62   91.36 -171.63     0.002000       0.7998    2.5675    0.4800
   82.73   93.03   -0.43     0.002000       0.7375    1.9289    0.6982
 -139.88   84.91 -177.50     0.002000       0.7709    2.0586    0.6249
  118.12   90.03   -0.86     0.002000       0.5359    3.4588    0.5270
  146.05   91.10 -176.84     0.002000       0.7347    3.3578    0.3956
  162.84   89.91  178.74     0.002000       0.5912    3.5218    0.4686
   53.02   90.00   -0.83     0.002000       0.6235    3.5284    0.4433
  141.19   89.60 -179.01     0.002000       0.5534    3.5015    0.5038
  164.55   88.57  171.56     0.002000       0.8196    2.6329    0.4563
 -178.36   94.30 -175.82     0.002000       0.8109    2.2791    0.5349
  178.20   91.00  178.17     0.002000       0.7055    3.4533    0.4002
   84.04   86.38    1.41     0.002000       0.7411    1.9478    0.6880
 -171.79   85.97 -174.19     0.002000       0.7606    2.1932    0.5937
  160.71   89.92 -179.56     0.002000       0.5450    3.5585    0.5031
   75.29   89.94   -0.29     0.002000       0.5595    3.5503    0.4911
 -171.03   90.98  171.68     0.002000       0.8647    2.8299    0.4010
 -150.64   91.05  176.50     0.002000       0.7507    3.3344    0.3898
  169.55   89.97 -179.02     0.002000       0.6651    3.5269    0.4155
  165.95   90.88 -178.97     0.002000       0.6406    3.5003    0.4350
  173.22   94.28  179.01     0.002000       0.7560    1.9678    0.6674
  161.71   86.35 -173.72     0.002000       0.7920    2.3560    0.5295
  104.42   91.04   -2.54     0.002000       0.7289    3.3948    0.3942
 -144.30   89.91 -171.56     0.002000       0.8594    2.8422    0.4018
  148.99   89.04 -179.76     0.002000       0.5352    3.4716    0.5256
   95.34   89.94    0.84     0.002000       0.5341    3.4597    0.5286
   95.93   89.25    1.88     0.002000       0.7468    3.4032    0.3836
 -158.81   84.85  179.82     0.002000       0.7712    2.0162    0.6381
   90.05   89.40    5.39     0.002000       0.7727    3.2102    0.3941
  155.51   89.97  174.17     0.002000       0.7884    3.1936    0.3883
   85.52   88.86    2.42     0.002000       0.6687    3.4242    0.4263
  164.20   90.43  171.22     0.002000       0.8222    2.6568    0.4507
 -164.88   90.12  179.05     0.002000       0.5959    3.5424    0.4621
 -171.72   85.17 -176.91     0.002000       0.7631    2.0463    0.6352
 -148.40   94.35 -175.99     0.002000       0.7508    2.0714    0.6377
  166.33   89.71  178.86     0.002000       0.5312    3.4888    0.5269
   97.20   89.11    8.42     0.002000       0.8517    2.7673    0.4168
   53.85   89.59   -0.03     0.002000       0.6935    3.5054    0.4008
  120.96   90.13   -3.57     0.002000       0.6734    3.3926    0.4275
  140.50   92.24  172.23     0.002000       0.7592    2.3502    0.5542
  164.55   90.26  179.87     0.002000       0.5370    3.4317    0.5302
 -169.43   90.39  179.01     0.002000       0.5520    3.5387    0.4996
  146.32   90.27  179.67     0.002000       0.5746    3.5497    0.4782
   79.70   90.21   -1.02     0.002000       0.5546    3.5034    0.5024
 -174.63   92.68  173.67     0.002000       0.7398    2.1182    0.6327
   80.10   89.27    8.50     0.002000       0.7991    2.5785    0.4784
 -157.06   89.52  178.99     0.002000       0.5518    3.5201    0.5025
  132.59   90.30   -1.13     0.002000       0.5857    3.5307    0.4718
 -137.40   90.78  178.43     0.002000       0.6239    3.4930    0.4477
   91.94   89.46   -1.65     0.002000       0.6062    3.5011    0.4597
 -139.85   90.13  178.93     0.002000       0.5416    3.4805    0.5181
  115.14   89.71    1.03     0.002000       0.5547    3.5004    0.5028
  113.47   90.96   -6.58     0.002000       0.8816    2.8334    0.3922
   86.17   91.70   -7.88     0.002000       0.7553    2.3692    0.5525
 -155.31   90.04  178.77     0.002000       0.6378    3.5274    0.4334
   50.37   89.76    1.06     0.002000       0.5411    3.4833    0.5181
   73.56   90.89    8.07     0.002000       0.7480    2.3457    0.5637
   93.32   89.16   -8.47     0.002000       0.8421    2.7343    0.4269
  178.87   85.84  175.42     0.002000       0.7501    2.0682    0.6393
 -136.44   91.32  175.66     0.002000       0.7295    1.9646    0.6928
 -165.86   90.13 -178.96     0.002000       0.5989    3.5283    0.4616
  172.84   89.93 -178.88     0.002000       0.5829    3.5187    0.4758
 -151.82   90.04 -178.90     0.002000       0.5845    3.5182    0.4745
 -168.43   90.95 -179.18     0.002000       0.6741    3.4939    0.4139
 -137.84   89.40 -179.56     0.002000       0.6954    3.4966    0.4008
  119.06   85.11    0.12     0.002000       0.7633    1.9948    0.6518
   55.44   91.41   -7.89     0.002000       0.7491    2.3392    0.5644
 -159.95   90.67 -174.52     0.002000       0.8812    2.9563    0.3754
   45.03   93.81    5.98     0.002000       0.7547    2.2089    0.5940
   94.26   87.39   -4.67     0.002000       0.7325    2.0105    0.6739
  119.53   95.35   -0.97     0.002000       0.7935    2.0963    0.5958
  175.62   90.88 -178.35     0.002000       0.6394    3.4811    0.4383
   94.49   89.63    1.03     0.002000       0.5628    3.5145    0.4935
   50.96   92.22   -7.65     0.002000       0.7562    2.3514    0.5560
   55.67   93.90   -5.54     0.002000       0.7951    2.3180    0.5363
  132.40   88.88    5.99     0.002000       0.8449    3.1044    0.3726
   85.40   87.82    4.30     0.002000       0.7287    1.9813    0.6876
   72.28   88.87   -1.38     0.002000       0.6787    3.4661    0.4145
  169.70   90.00  178.84     0.002000       0.6409    3.5310    0.4308
 -148.37   90.36 -179.30     0.002000       0.7452    3.4582    0.3780
   84.47   89.62    8.62     0.002000       0.8446    2.7460    0.4238
  140.17   85.03  177.23     0.002000       0.7672    2.0431    0.6329
  108.39   87.31    7.35     0.002000       0.7560    2.3233    0.5632
   97.71   89.30   -7.02     0.002000       0.7311    2.1594    0.6278
  110.07   85.81   -5.63     0.002000       0.7784    2.2502    0.5649
  107.01   88.81   -0.99     0.002000       0.7280    1.9066    0.7158
   67.76   84.63    1.40     0.002000       0.7870    2.0868    0.6035
  176.91   86.15  174.50     0.002000       0.8077    2.3478    0.5209
