MORPHOLOGY AT STRAIN =    1.0000  FOR PHASE  1
   0.605   2.692   0.605  <-- AXES OF PHASE ELLIPSOID
  178.22   90.00  180.00  <-- EULER ANGLES OF PHASE ELLIPSOID (deg)
   0.717   2.763   0.522  <-- AVERAGE OF GRAIN AXES FOR PHASE
   0.140   0.212   0.183  <-- STANDARD DEV OF AVG GRAIN AXES FOR PHASE
B       500
  145.13   89.25 -175.42     0.002000       0.7178    2.0328    0.6801
  142.15   87.85  172.35     0.002000       0.7850    2.4902    0.5048
   77.53   89.95   -8.43     0.002000       0.8496    2.8107    0.4112
  123.23   88.50    7.26     0.002000       0.8705    2.7323    0.4128
   70.16   90.04   -0.05     0.002000       0.5699    3.5465    0.4826
  170.65   90.62  179.41     0.002000       0.5337    3.4681    0.5277
 -139.64   91.72 -172.38     0.002000       0.8214    2.6209    0.4573
  129.15   89.92   -0.91     0.002000       0.6347    3.5194    0.4366
  129.44   91.95   -1.30     0.002000       0.7219    1.9781    0.6953
  178.32   93.75 -176.25     0.002000       0.7334    2.0836    0.6490
   54.21   89.47   -0.76     0.002000       0.5881    3.5340    0.4694
  143.94   90.09 -179.23     0.002000       0.5369    3.4715    0.5240
 -142.42   94.14  177.26     0.002000       0.7406    2.0602    0.6501
  165.64   90.51 -171.66     0.002000       0.8441    2.7658    0.4209
 -167.58   90.70 -171.87     0.002000       0.8022    2.6074    0.4711
  172.17   90.38  179.09     0.002000       0.5488    3.5403    0.5022
 -149.04   90.22  178.90     0.002000       0.5574    3.5102    0.4989
 -146.08   88.93  174.66     0.002000       0.8182    3.1797    0.3754
 -153.23   86.99  174.21     0.002000       0.7304    2.1810    0.6220
 -168.87   88.88  177.94     0.002000       0.7053    3.4347    0.4026
  170.94   87.44  173.41     0.002000       0.7363    2.2426    0.5996
   91.08   91.07   -6.53     0.002000       0.8562    3.0482    0.3747
  176.50   90.25 -179.19     0.002000       0.5318    3.5431    0.5179
   90.01   90.15   -8.38     0.002000       0.8274    2.7005    0.4403
  144.20   89.01  178.80     0.002000       0.6908    3.4768    0.4059
  136.74   92.23 -172.52     0.002000       0.7841    2.4760    0.5084
  132.23   89.94    0.75     0.002000       0.5352    3.4687    0.5261
 -135.13   89.06 -173.91     0.002000       0.8564    3.0637    0.3725
   98.19   89.98   -0.95     0.002000       0.5435    3.4907    0.5146
   81.71   94.29    1.05     0.002000       0.7439    2.0399    0.6538
  140.96   89.26  178.77     0.002000       0.6223    3.5171    0.4457
   83.94   93.53    2.96     0.002000       0.7288    2.0381    0.6680
   56.06   93.92   -4.46     0.002000       0.7379    2.1387    0.6280
  138.40   89.79 -176.21     0.002000       0.6891    3.3840    0.4188
   69.08   92.93   -3.66     0.002000       0.7219    2.0437    0.6725
   80.38   92.63   -5.97     0.002000       0.7285    2.1960    0.6192
  107.63   88.85   -6.70     0.002000       0.7254    2.2101    0.6179
 -179.94   91.01 -176.61     0.002000       0.7625    3.3174    0.3857
   92.45   89.22   -6.38     0.002000       0.8263    3.1049    0.3812
  111.34   89.80    0.49     0.002000       0.5744    3.5446    0.4791
  167.28   84.91 -179.36     0.002000       0.7796    2.1095    0.6027
 -163.87   90.78 -179.37     0.002000       0.5342    3.5180    0.5194
  117.07   90.31    3.75     0.002000       0.6890    3.3792    0.4194
 -135.64   91.63  177.38     0.002000       0.7188    1.9886    0.6946
 -147.78   91.40  172.00     0.002000       0.8018    2.5873    0.4750
 -149.01   90.40 -177.08     0.002000       0.8292    3.2537    0.3614
 -167.16   93.71 -177.31     0.002000       0.8627    2.3236    0.4924
  129.39   85.08    2.34     0.002000       0.7965    2.1787    0.5705
   67.49   85.66   -1.90     0.002000       0.8413    2.2504    0.5221
 -163.45   92.20  173.28     0.002000       0.8409    2.5560    0.4581
 -171.06   90.98  177.35     0.002000       0.6759    3.4350    0.4203
  103.08   89.07    1.09     0.002000       0.6343    3.4944    0.4401
 -144.64   86.34 -179.99     0.002000       0.7342    2.0070    0.6736
   86.70   89.52    1.88     0.002000       0.6062    3.4967    0.4604
 -142.16   90.28  179.08     0.002000       0.7136    1.9641    0.7086
 -138.10   89.01  171.83     0.002000       0.8588    2.8261    0.4043
  120.64   89.23    8.03     0.002000       0.7649    2.4663    0.5234
   92.72   85.46    3.30     0.002000       0.8066    2.2301    0.5500
  165.04   90.40 -179.61     0.002000       0.5356    3.4574    0.5275
   45.71   90.00   -0.98     0.002000       0.5846    3.5165    0.4746
   52.05   90.18    0.98     0.002000       0.5401    3.4893    0.5182
  127.43   89.41    8.16     0.002000       0.7801    2.5257    0.5007
   76.32   94.96    0.83     0.002000       0.7713    2.0997    0.6121
   48.65   89.39   -0.81     0.002000       0.5425    3.5113    0.5124
  127.72   94.99   -0.02     0.002000       0.8102    2.1639    0.5647
  155.08   88.04 -177.58     0.002000       0.7229    1.9890    0.6905
  107.68   89.17   -8.15     0.002000       0.7990    2.5923    0.4758
   93.36   88.89    1.29     0.002000       0.7153    1.9694    0.7049
  160.16   89.06  174.70     0.002000       0.8328    3.1486    0.3724
 -153.37   87.89 -174.83     0.002000       0.7199    2.0914    0.6587
  171.65   90.73  174.25     0.002000       0.8043    3.1832    0.3817
  118.28   90.02    0.19     0.002000       0.5597    3.5538    0.4905
 -170.14   90.22 -179.66     0.002000       0.5652    3.5533    0.4857
 -137.54   89.08 -176.52     0.002000       0.7697    3.3045    0.3836
  125.32   89.87    0.23     0.002000       0.5869    3.5496    0.4682
 -177.15   89.50  178.99     0.002000       0.5467    3.5067    0.5092
   92.39   88.74   -8.00     0.002000       0.8510    2.7631    0.4177
   66.79   88.95   -5.28     0.002000       0.7148    2.0839    0.6659
 -152.42   90.88  179.03     0.002000       0.6549    3.4992    0.4255
   95.12   90.02   -7.72     0.002000       0.7448    2.3727    0.5595
 -137.56   90.99  172.16     0.002000       0.8673    2.9102    0.3882
  153.15   89.84  178.89     0.002000       0.6094    3.5229    0.4543
   47.82   88.93   -3.67     0.002000       0.7230    3.3432    0.4040
  178.55   90.51  176.03     0.002000       0.7013    3.3718    0.4130
  164.93   90.23  179.50     0.002000       0.5348    3.4512    0.5292
   89.83   90.79    1.57     0.002000       0.6381    3.4830    0.4390
 -170.40   87.16  174.27     0.002000       0.8470    2.4745    0.4702
   54.55   89.90   -0.98     0.002000       0.5860    3.5153    0.4737
  151.70   91.24 -175.50     0.002000       0.7190    2.0348    0.6783
 -172.99   94.27  175.74     0.002000       0.7549    2.1587    0.6080
   75.34   90.46   -0.22     0.002000       0.7041    3.4822    0.3975
 -174.34   88.96 -178.28     0.002000       0.6703    3.4640    0.4201
  149.02   89.93 -179.63     0.002000       0.5417    3.5598    0.5059
  144.72   92.76  177.32     0.002000       0.7264    2.0097    0.6799
 -152.84   90.63 -179.28     0.002000       0.5376    3.4916    0.5201
   97.76   89.59    8.10     0.002000       0.7776    2.5205    0.5035
 -170.40   86.09  175.97     0.002000       0.7345    2.0975    0.6436
 -141.36   90.89  171.84     0.002000       0.8606    2.8488    0.4001
  113.68   92.89    4.47     0.002000       0.7248    2.0716    0.6607
 -162.79   89.61  179.74     0.002000       0.6038    3.5373    0.4566
   80.23   85.75   -2.71     0.002000       0.7406    2.0709    0.6467
  144.21   90.96 -179.91     0.002000       0.5320    3.4911    0.5258
   73.30   93.91    3.86     0.002000       0.7333    2.0942    0.6457
   56.24   94.43    3.93     0.002000       0.7520    2.1539    0.6118
  148.98   89.98  179.30     0.002000       0.5355    3.4569    0.5277
  142.69   91.33 -174.18     0.002000       0.9000    2.7045    0.4031
  146.67   89.62  179.53     0.002000       0.6519    3.5206    0.4248
 -147.60   88.90  178.53     0.002000       0.7164    1.9707    0.7034
  136.92   91.77 -175.71     0.002000       0.7204    2.0339    0.6773
 -169.80   90.99 -175.56     0.002000       0.7642    3.2719    0.3906
   99.95   91.59    7.79     0.002000       0.7794    2.5081    0.5048
 -162.41   91.39 -172.31     0.002000       0.7566    2.4236    0.5388
  107.69   87.69   -1.26     0.002000       0.7232    1.9818    0.6928
 -178.33   90.64 -173.60     0.002000       0.7205    2.1635    0.6358
   65.91   89.58   -2.19     0.002000       0.6161    3.4874    0.4543
   66.10   86.71   -0.34     0.002000       0.7289    1.9977    0.6818
 -138.20   90.31  173.90     0.002000       0.7164    2.1270    0.6506
 -145.73   92.86  174.85     0.002000       0.7255    2.1115    0.6472
   79.48   90.83   -7.28     0.002000       0.8549    2.9938    0.3825
  111.14   90.81   -4.64     0.002000       0.8214    3.1676    0.3752
  133.03   89.84    0.04     0.002000       0.5554    3.5552    0.4940
  127.64   90.29   -0.68     0.002000       0.5347    3.4641    0.5273
  142.40   90.74  177.03     0.002000       0.7756    3.3329    0.3772
  141.44   87.40    3.79     0.002000       0.7227    2.0330    0.6754
  119.27   90.54    8.11     0.002000       0.8598    2.8861    0.3951
  175.04   87.52  173.93     0.002000       0.8536    2.5297    0.4560
  152.04   90.47  179.89     0.002000       0.5344    3.4521    0.5295
   76.86   93.24    2.90     0.002000       0.7255    2.0265    0.6750
   74.07   88.90    0.57     0.002000       0.7145    1.9659    0.7070
   71.34   89.88    0.82     0.002000       0.6241    3.5222    0.4437
  101.42   90.32    0.93     0.002000       0.5579    3.5231    0.4965
   84.45   88.42   -7.75     0.002000       0.8349    2.6698    0.4413
 -153.53   90.38  179.11     0.002000       0.5396    3.5452    0.5101
 -156.01   94.80 -178.45     0.002000       0.8127    2.1908    0.5558
   89.03   94.57   -3.57     0.002000       0.7872    2.2108    0.5687
   59.71   89.03    5.60     0.002000       0.7148    2.0957    0.6620
 -178.17   89.61  179.84     0.002000       0.7047    3.4960    0.3955
 -162.67   88.94  172.41     0.002000       0.8682    2.9548    0.3817
   93.62   89.98    0.19     0.002000       0.5721    3.5484    0.4805
  155.78   93.63 -174.65     0.002000       0.7436    2.1946    0.6070
 -138.22   90.81 -171.85     0.002000       0.8156    2.6531    0.4550
 -156.76   85.55  177.02     0.002000       0.8263    2.2551    0.5305
   94.75   89.95   -0.92     0.002000       0.6719    3.4993    0.4147
  173.81   90.82 -175.73     0.002000       0.7427    3.3052    0.3978
  135.13   89.42  179.27     0.002000       0.6087    3.5338    0.4534
  151.43   94.35 -176.87     0.002000       0.7479    2.0942    0.6331
   81.99   93.65    5.49     0.002000       0.7459    2.2211    0.5977
   96.24   89.88   -1.03     0.002000       0.6076    3.5127    0.4571
  160.52   90.10  179.79     0.002000       0.5356    3.4440    0.5296
   85.56   85.30    2.88     0.002000       0.7576    2.1196    0.6172
  132.57   85.99  178.47     0.002000       0.7409    2.0269    0.6608
  130.92   85.99    0.23     0.002000       0.7408    2.0188    0.6636
 -168.94   89.20  176.55     0.002000       0.6883    3.3980    0.4175
   94.93   90.96    7.98     0.002000       0.7743    2.5051    0.5088
   92.88   90.43    0.24     0.002000       0.6246    3.5201    0.4436
 -162.81   91.00  173.14     0.002000       0.8565    3.0433    0.3752
  146.00   94.75 -177.57     0.002000       0.8094    2.1988    0.5561
  133.32   89.25   -7.01     0.002000       0.8467    3.0483    0.3791
  158.75   89.45 -179.13     0.002000       0.5473    3.5167    0.5071
  167.54   89.52 -179.53     0.002000       0.7332    3.4670    0.3832
  151.62   92.70 -173.02     0.002000       0.7645    2.3750    0.5443
   53.71   90.67    5.23     0.002000       0.8778    2.9946    0.3718
   82.45   86.91   -5.77     0.002000       0.7348    2.2044    0.6115
  114.49   91.92    2.23     0.002000       0.7217    1.9867    0.6924
  116.53   88.78   -7.27     0.002000       0.7354    2.2897    0.5878
   48.85   93.21    0.29     0.002000       0.7287    1.9950    0.6829
   57.00   90.14    8.23     0.002000       0.7899    2.5654    0.4866
  156.74   89.38  179.03     0.002000       0.5396    3.5246    0.5132
  145.47   89.52 -179.67     0.002000       0.5344    3.4557    0.5289
  162.57   91.44  173.70     0.002000       0.7241    2.1579    0.6343
  111.88   88.78    7.89     0.002000       0.7655    2.4640    0.5235
 -134.37   89.41 -178.81     0.002000       0.6146    3.5149    0.4516
   97.52   89.95    0.96     0.002000       0.6628    3.5045    0.4198
   72.47   89.60   -0.09     0.002000       0.7013    3.4855    0.3987
  160.91   94.81  179.89     0.002000       0.8260    2.1935    0.5461
  112.86   91.41   -7.70     0.002000       0.8647    2.7624    0.4110
  165.06   94.26 -179.27     0.002000       0.7473    2.0376    0.6516
   73.05   91.46   -7.82     0.002000       0.8444    2.7090    0.4297
   99.20   88.97   -8.02     0.002000       0.7875    2.5511    0.4909
 -149.80   89.48  179.85     0.002000       0.6507    3.5149    0.4263
   62.49   94.33    1.18     0.002000       0.8503    2.2539    0.5157
  121.63   90.45   -0.89     0.002000       0.5428    3.4975    0.5143
   94.94   91.83   -7.56     0.002000       0.7639    2.4413    0.5296
   96.82   91.40    2.87     0.002000       0.7177    1.9912    0.6947
  161.17   89.77 -174.13     0.002000       0.7182    2.1061    0.6556
   53.20   94.82    1.62     0.002000       0.8178    2.2010    0.5497
  128.02   90.44    8.01     0.002000       0.7567    2.4317    0.5369
  178.09   89.65 -171.63     0.002000       0.8341    2.7255    0.4325
   52.16   88.64   -7.90     0.002000       0.8098    2.6198    0.4643
  116.19   89.11    2.52     0.002000       0.6531    3.4464    0.4337
  165.86   91.49 -172.17     0.002000       0.7741    2.4913    0.5118
   83.98   92.57   -0.25     0.002000       0.7233    1.9823    0.6925
 -137.85   85.32 -178.28     0.002000       0.7540    2.0745    0.6340
  121.36   90.07   -0.80     0.002000       0.5346    3.4671    0.5270
  145.68   91.09 -176.94     0.002000       0.7344    3.3640    0.3949
  162.38   89.91  178.85     0.002000       0.5877    3.5188    0.4718
   52.56   89.92   -0.77     0.002000       0.6234    3.5209    0.4443
  141.10   89.60 -179.08     0.002000       0.5508    3.5048    0.5057
  164.17   88.48  171.98     0.002000       0.7966    2.5677    0.4819
  179.53   94.42 -176.56     0.002000       0.8084    2.2420    0.5457
  178.89   90.99  178.24     0.002000       0.7084    3.4486    0.3991
   84.80   86.94    1.13     0.002000       0.7260    1.9949    0.6854
 -168.13   85.85 -175.44     0.002000       0.7476    2.1643    0.6124
  162.74   89.86 -179.53     0.002000       0.5430    3.5578    0.5050
   73.22   89.85   -0.33     0.002000       0.5585    3.5490    0.4922
 -171.99   90.90  171.72     0.002000       0.8557    2.8146    0.4076
 -150.11   91.07  176.59     0.002000       0.7527    3.3370    0.3884
  169.22   89.97 -179.08     0.002000       0.6667    3.5135    0.4162
  163.55   90.78 -179.19     0.002000       0.6366    3.5103    0.4365
  172.76   93.61  179.17     0.002000       0.7371    2.0097    0.6701
  164.20   86.11 -174.50     0.002000       0.7836    2.3025    0.5480
  104.94   91.05   -2.47     0.002000       0.7331    3.3900    0.3924
 -144.23   89.89 -171.61     0.002000       0.8520    2.8210    0.4084
  149.05   89.09 -179.78     0.002000       0.5344    3.4785    0.5254
  100.30   89.86    0.78     0.002000       0.5328    3.4688    0.5285
   95.37   89.19    1.90     0.002000       0.7508    3.3902    0.3830
 -158.69   85.46  179.81     0.002000       0.7504    2.0468    0.6459
   89.67   89.44    5.25     0.002000       0.7647    3.2371    0.3948
  155.48   89.96  174.37     0.002000       0.7763    3.2327    0.3894
   85.96   88.92    2.33     0.002000       0.6636    3.4369    0.4279
  163.82   90.40  171.64     0.002000       0.7988    2.5915    0.4761
 -163.82   90.20  179.08     0.002000       0.5943    3.5354    0.4643
 -169.67   85.58 -177.73     0.002000       0.7464    2.0633    0.6441
 -151.24   94.08 -176.91     0.002000       0.7371    2.0773    0.6477
  158.71   89.57  178.96     0.002000       0.5306    3.4913    0.5271
   96.42   89.16    8.23     0.002000       0.8363    2.7253    0.4314
   54.23   89.61   -0.08     0.002000       0.6975    3.4933    0.4000
  121.17   90.12   -3.43     0.002000       0.6651    3.4205    0.4292
  142.34   92.43  173.16     0.002000       0.7433    2.2875    0.5820
  160.85   90.22  179.85     0.002000       0.5356    3.4452    0.5295
 -168.19   90.44  179.02     0.002000       0.5502    3.5351    0.5017
  147.97   90.20  179.73     0.002000       0.5729    3.5540    0.4791
   80.18   90.20   -0.95     0.002000       0.5516    3.5050    0.5049
 -171.61   92.72  174.84     0.002000       0.7261    2.1056    0.6486
   79.90   89.28    8.03     0.002000       0.7735    2.5060    0.5091
 -157.61   89.50  179.03     0.002000       0.5495    3.5202    0.5046
  133.79   90.26   -1.05     0.002000       0.5818    3.5409    0.4736
 -135.93   90.73  178.55     0.002000       0.6189    3.5061    0.4496
   90.78   89.48   -1.53     0.002000       0.6003    3.5145    0.4625
 -139.99   90.12  178.99     0.002000       0.5388    3.4858    0.5199
  115.48   89.71    0.95     0.002000       0.5519    3.5032    0.5049
  114.50   91.14   -6.62     0.002000       0.8903    2.7995    0.3933
   87.88   91.92   -6.99     0.002000       0.7381    2.3024    0.5823
 -155.14   90.02  178.86     0.002000       0.6365    3.5166    0.4357
   50.60   89.76    1.00     0.002000       0.5384    3.4880    0.5199
   72.42   91.03    7.21     0.002000       0.7308    2.2827    0.5933
   94.07   89.22   -8.23     0.002000       0.8249    2.6862    0.4440
  175.32   86.00  176.54     0.002000       0.7365    2.0740    0.6493
 -134.69   91.22  176.46     0.002000       0.7168    2.0032    0.6914
 -166.04   90.17 -179.08     0.002000       0.5964    3.5241    0.4642
  172.52   89.93 -179.02     0.002000       0.5793    3.5185    0.4788
 -151.48   90.06 -179.03     0.002000       0.5809    3.5170    0.4776
 -169.28   90.90 -179.27     0.002000       0.6751    3.4889    0.4139
 -136.79   89.46 -179.71     0.002000       0.7006    3.4887    0.3987
  119.36   85.75    0.10     0.002000       0.7444    2.0303    0.6565
   57.30   91.64   -6.98     0.002000       0.7327    2.2774    0.5932
 -160.22   90.75 -174.53     0.002000       0.8919    2.9250    0.3749
   41.72   93.95    4.90     0.002000       0.7426    2.1788    0.6123
   91.41   87.52   -3.75     0.002000       0.7204    2.0325    0.6777
  120.27   94.97   -0.63     0.002000       0.7770    2.1062    0.6056
  173.30   90.81 -178.60     0.002000       0.6311    3.4993    0.4417
   94.79   89.62    0.95     0.002000       0.5601    3.5141    0.4960
   53.55   92.52   -6.69     0.002000       0.7403    2.2886    0.5840
   58.46   94.15   -4.72     0.002000       0.7911    2.2732    0.5500
  132.05   88.90    6.06     0.002000       0.8456    3.1007    0.3727
   88.77   87.92    3.49     0.002000       0.7170    2.0141    0.6874
   71.68   88.89   -1.33     0.002000       0.6792    3.4650    0.4144
  169.04   89.96  178.90     0.002000       0.6403    3.5191    0.4327
 -147.41   90.45 -179.26     0.002000       0.7465    3.4480    0.3785
   83.97   89.66    8.35     0.002000       0.8273    2.6960    0.4411
  138.50   85.48  177.97     0.002000       0.7509    2.0624    0.6405
  111.09   87.07    6.35     0.002000       0.7409    2.2650    0.5899
   96.89   89.27   -6.03     0.002000       0.7178    2.1352    0.6468
  107.07   85.69   -4.57     0.002000       0.7694    2.2119    0.5817
  107.39   89.02   -0.79     0.002000       0.7160    1.9661    0.7055
   68.43   85.08    1.07     0.002000       0.7697    2.0981    0.6139
  174.48   85.90  175.20     0.002000       0.8057    2.3007    0.5333
