MORPHOLOGY AT STRAIN =    1.0000  FOR PHASE  1
   0.605   2.692   0.605  <-- AXES OF PHASE ELLIPSOID
  158.95   90.00  180.00  <-- EULER ANGLES OF PHASE ELLIPSOID (deg)
   0.780   2.895   0.475  <-- AVERAGE OF GRAIN AXES FOR PHASE
   0.186   0.282   0.240  <-- STANDARD DEV OF AVG GRAIN AXES FOR PHASE
B       500
  140.98   89.22 -165.87     0.002000       0.8398    1.8090    0.6548
  147.32   88.45  168.77     0.002000       0.9088    2.7006    0.4003
   77.32   89.92   -9.46     0.002000       0.8923    2.9363    0.3739
  118.40   88.86    8.57     0.002000       0.9031    2.9614    0.3657
   79.96   90.26    0.04     0.002000       0.5505    3.9884    0.4421
  171.19   90.76  179.31     0.002000       0.5133    3.7749    0.5024
   44.04   88.59  -10.03     0.002000       0.9089    2.8178    0.3829
  127.37   89.76   -1.34     0.002000       0.6125    4.0034    0.3954
  121.22   95.29   -6.64     0.002000       0.8549    1.5113    0.7718
 -166.28   93.94 -166.83     0.002000       0.8528    1.9574    0.5949
   63.97   89.39   -1.28     0.002000       0.5937    3.9402    0.4150
  146.00   90.12 -179.01     0.002000       0.5210    3.7798    0.4942
 -154.75   95.97  168.31     0.002000       0.8587    1.8274    0.6336
  165.11   90.59 -170.35     0.002000       0.8982    2.9197    0.3736
 -167.57   90.72 -169.43     0.002000       0.9009    2.8077    0.3879
  166.64   90.24  178.90     0.002000       0.5276    3.9561    0.4653
 -150.40   90.24  178.51     0.002000       0.5456    3.8818    0.4590
 -142.71   89.06  173.67     0.002000       0.8651    3.3082    0.3404
 -141.75   87.99  166.62     0.002000       0.8727    2.2470    0.5045
 -157.22   89.04  176.85     0.002000       0.7444    3.7559    0.3471
  179.40   88.35  166.78     0.002000       0.8862    2.3893    0.4663
   89.16   90.98   -7.22     0.002000       0.8800    3.1843    0.3481
 -174.67   90.11 -179.10     0.002000       0.5117    3.9557    0.4799
   89.79   90.12  -10.10     0.002000       0.8962    2.8647    0.3820
  156.82   89.01  177.79     0.002000       0.7021    3.8737    0.3565
  143.09   91.51 -168.85     0.002000       0.9085    2.6878    0.4024
  132.85   89.97    0.95     0.002000       0.5176    3.7735    0.4984
 -138.07   89.19 -173.37     0.002000       0.8706    3.2561    0.3437
   97.98   89.98   -1.24     0.002000       0.5287    3.8259    0.4809
   86.53   98.55    5.51     0.002000       0.8792    1.6776    0.6749
  153.72   89.26  177.65     0.002000       0.6698    3.8492    0.3766
   97.69   94.96   12.21     0.002000       0.8477    1.7717    0.6625
 -139.21   86.85 -166.90     0.002000       0.8626    2.1148    0.5433
  137.49   89.81 -174.36     0.002000       0.8257    3.3995    0.3470
   54.13   93.10  -13.35     0.002000       0.8403    1.8270    0.6478
   70.50   91.69  -13.23     0.002000       0.8750    2.2847    0.4946
  110.97   89.19  -13.47     0.002000       0.8780    2.3328    0.4825
 -170.58   90.81 -175.54     0.002000       0.8111    3.5631    0.3360
   92.55   89.14   -7.34     0.002000       0.8763    3.1598    0.3526
  105.80   90.05    0.65     0.002000       0.5485    3.9823    0.4444
  164.39   81.69 -176.59     0.002000       0.9038    1.8180    0.6047
 -160.30   90.78 -179.19     0.002000       0.5110    3.8875    0.4894
  119.55   90.28    5.54     0.002000       0.8225    3.4053    0.3478
 -140.94   93.73  169.60     0.002000       0.8483    1.5742    0.7464
 -149.28   91.26  169.31     0.002000       0.9071    2.7849    0.3884
 -151.68   90.21 -177.82     0.002000       0.8010    3.7523    0.3223
 -159.05   93.86 -173.66     0.002000       0.9168    2.2661    0.4751
  119.17   84.13    8.63     0.002000       0.8882    2.0468    0.5451
   74.05   84.90   -5.86     0.002000       0.9119    2.1288    0.5096
 -172.52   91.48  170.35     0.002000       0.9155    2.7273    0.3930
  179.76   90.81  175.56     0.002000       0.7996    3.5553    0.3420
   91.26   89.00    1.92     0.002000       0.6526    3.8687    0.3846
 -144.18   81.15 -179.88     0.002000       0.8783    1.5766    0.7196
   80.88   89.58    2.91     0.002000       0.6709    3.7798    0.3833
   50.22   88.09    3.18     0.002000       0.8440    1.4425    0.8194
 -138.46   88.95  170.87     0.002000       0.9008    2.9652    0.3664
  119.34   89.38   11.58     0.002000       0.8988    2.6878    0.4069
   80.36   85.52    9.34     0.002000       0.8907    2.1849    0.5083
  169.66   90.45 -179.44     0.002000       0.5184    3.7472    0.5013
 -135.24   89.98 -178.44     0.002000       0.5740    3.9232    0.4313
   51.90   90.21    1.20     0.002000       0.5246    3.8198    0.4855
  126.73   89.49   11.19     0.002000       0.8993    2.7423    0.3983
   80.11   98.22    4.22     0.002000       0.8952    1.8018    0.6162
   49.13   89.37   -1.04     0.002000       0.5232    3.8757    0.4795
  127.85   97.33    0.02     0.002000       0.9175    1.9145    0.5648
  146.90   85.83 -169.83     0.002000       0.8524    1.5737    0.7430
  107.20   89.14  -10.70     0.002000       0.9018    2.7877    0.3904
   86.84   86.63    5.24     0.002000       0.8470    1.4685    0.8019
  165.05   89.24  173.91     0.002000       0.8571    3.3503    0.3389
 -163.10   88.47 -165.85     0.002000       0.8495    2.0226    0.5776
  170.56   90.78  172.95     0.002000       0.8744    3.2164    0.3469
  125.38   90.09    0.54     0.002000       0.5591    3.9893    0.4352
 -162.40   90.31 -179.19     0.002000       0.5715    3.9796    0.4268
 -146.47   89.29 -175.70     0.002000       0.8035    3.5821    0.3374
  136.12   89.57 -179.95     0.002000       0.5681    4.0068    0.4262
 -176.08   89.51  178.73     0.002000       0.5320    3.8641    0.4730
   93.00   88.76   -9.35     0.002000       0.9040    2.9248    0.3703
   71.74   89.11  -13.98     0.002000       0.8442    1.9957    0.5893
 -165.71   90.94  178.03     0.002000       0.6739    3.8905    0.3700
   94.58   89.94  -12.25     0.002000       0.8941    2.5863    0.4258
 -137.11   91.08  171.45     0.002000       0.8981    3.0297    0.3593
  154.82   89.93  178.33     0.002000       0.5962    3.9751    0.4094
   52.87   89.04   -5.11     0.002000       0.8277    3.4367    0.3421
  175.44   90.47  174.12     0.002000       0.8383    3.3742    0.3444
  167.77   90.33  179.41     0.002000       0.5162    3.7350    0.5051
  101.54   90.78    2.70     0.002000       0.6920    3.7846    0.3709
 -159.36   87.99  170.97     0.002000       0.9167    2.5796    0.4157
   54.14   89.93   -1.55     0.002000       0.5748    3.9220    0.4308
  158.54   91.26 -165.82     0.002000       0.8412    1.8182    0.6504
  172.40   93.79  167.47     0.002000       0.8725    2.1402    0.5304
   70.54   90.64   -0.27     0.002000       0.6617    4.0170    0.3643
  173.34   89.08 -176.73     0.002000       0.7542    3.7034    0.3477
  144.64   90.03 -179.74     0.002000       0.5290    3.9992    0.4588
  132.92   94.82  -11.62     0.002000       0.8494    1.6737    0.7005
 -152.16   90.68 -179.08     0.002000       0.5205    3.8256    0.4885
   97.38   89.62   11.19     0.002000       0.8986    2.7341    0.3998
 -154.81   86.28  166.73     0.002000       0.8543    1.9982    0.5815
 -140.33   91.02  170.95     0.002000       0.9002    2.9758    0.3653
  126.58   92.67   13.95     0.002000       0.8468    1.9397    0.6047
 -151.87   89.33  179.46     0.002000       0.5871    3.9823    0.4150
   93.80   84.33  -11.75     0.002000       0.8564    1.8670    0.6216
  152.71   91.08 -179.71     0.002000       0.5078    3.8279    0.5005
   88.96   93.81   13.04     0.002000       0.8515    1.9765    0.5899
   71.69   94.01   12.09     0.002000       0.8664    2.1059    0.5431
  150.20   89.99  179.14     0.002000       0.5177    3.7488    0.5017
  150.51   90.86 -172.53     0.002000       0.9069    2.9373    0.3670
  142.06   89.36  179.45     0.002000       0.6201    4.0305    0.3878
   42.40   92.52    6.35     0.002000       0.8469    1.4759    0.7979
  146.01   91.90 -165.98     0.002000       0.8418    1.8081    0.6536
 -166.55   90.94 -174.05     0.002000       0.8579    3.3254    0.3415
  102.58   91.24   11.06     0.002000       0.9051    2.7196    0.3990
 -159.83   91.09 -168.26     0.002000       0.9001    2.6438    0.4133
  110.28   83.51   -6.12     0.002000       0.8614    1.5195    0.7617
 -175.54   90.43 -166.12     0.002000       0.8683    2.2350    0.5100
   70.03   89.64   -3.36     0.002000       0.6985    3.7250    0.3737
   68.65   81.43   -2.44     0.002000       0.8728    1.5589    0.7325
 -139.01   90.30  165.93     0.002000       0.8570    2.1301    0.5429
 -157.53   92.30  166.07     0.002000       0.8563    2.0728    0.5588
   79.88   90.91   -7.95     0.002000       0.8874    3.0836    0.3571
  108.45   90.67   -4.27     0.002000       0.7934    3.5784    0.3421
  126.77   89.76    0.30     0.002000       0.5488    3.9927    0.4430
  124.32   90.32   -0.86     0.002000       0.5158    3.7643    0.5014
  139.90   90.70  177.45     0.002000       0.7371    3.8268    0.3436
  128.42   86.87   13.41     0.002000       0.8423    1.7908    0.6596
  118.29   90.65    8.85     0.002000       0.8932    2.9982    0.3654
 -174.64   88.30  170.92     0.002000       0.9181    2.6638    0.4014
  155.78   90.60  179.93     0.002000       0.5147    3.7363    0.5064
   90.47   94.78   12.02     0.002000       0.8456    1.7307    0.6802
   72.85   86.02    2.10     0.002000       0.8477    1.4493    0.8119
   68.11   90.09    1.15     0.002000       0.5987    4.0017    0.4048
  104.22   90.28    1.24     0.002000       0.5407    3.9175    0.4587
   87.28   88.66   -9.76     0.002000       0.9075    2.8576    0.3779
 -163.20   90.19  179.01     0.002000       0.5189    3.9680    0.4717
 -150.04   96.31 -174.15     0.002000       0.9038    2.0138    0.5445
   75.13   94.22  -10.45     0.002000       0.8823    2.1794    0.5146
   55.46   89.23   14.10     0.002000       0.8476    2.0336    0.5757
  176.91   89.40  179.93     0.002000       0.6633    4.0485    0.3605
 -162.35   88.92  171.69     0.002000       0.8964    3.0687    0.3552
   84.44   90.23    0.16     0.002000       0.5489    3.9906    0.4431
  169.36   92.56 -166.99     0.002000       0.8792    2.2694    0.4956
 -138.53   90.87 -169.77     0.002000       0.9013    2.8352    0.3838
 -147.71   85.28  172.23     0.002000       0.9002    2.1719    0.5058
   95.39   89.96   -1.40     0.002000       0.6504    4.0181    0.3707
  177.01   90.79 -174.02     0.002000       0.8542    3.3254    0.3430
  148.28   89.30  178.46     0.002000       0.6256    3.9319    0.3946
  166.11   95.08 -167.71     0.002000       0.8613    1.9485    0.5917
   95.31   92.48   12.60     0.002000       0.8820    2.3084    0.4854
   96.76   89.89   -1.65     0.002000       0.5951    3.9522    0.4126
  164.04   90.15  179.76     0.002000       0.5178    3.7178    0.5059
   71.61   84.46   11.14     0.002000       0.8655    1.9795    0.5793
  139.23   81.99  171.86     0.002000       0.8741    1.6704    0.6819
  128.41   80.85    1.65     0.002000       0.8851    1.6121    0.6981
 -163.09   89.31  174.70     0.002000       0.8240    3.4386    0.3436
   95.83   90.82   11.21     0.002000       0.9011    2.7183    0.4011
  104.34   90.74    0.69     0.002000       0.6098    3.9729    0.4004
 -163.68   91.00  172.30     0.002000       0.8896    3.1391    0.3496
  156.33   95.42 -171.37     0.002000       0.8938    2.0886    0.5305
  133.02   89.17   -7.83     0.002000       0.8856    3.1179    0.3538
  157.41   89.48 -178.87     0.002000       0.5305    3.8871    0.4714
  163.85   89.38 -179.59     0.002000       0.6906    4.0230    0.3483
  160.21   91.73 -168.17     0.002000       0.9036    2.5794    0.4223
   53.14   90.56    4.42     0.002000       0.8177    3.4611    0.3434
   93.36   87.85  -13.02     0.002000       0.8789    2.2977    0.4895
  119.97   94.54    9.29     0.002000       0.8535    1.5537    0.7517
  119.28   89.11  -12.91     0.002000       0.8897    2.4746    0.4479
   50.65   98.34    1.46     0.002000       0.8710    1.5443    0.7410
   57.67   90.06   10.99     0.002000       0.8983    2.7685    0.3948
  163.50   89.51  178.81     0.002000       0.5180    3.9135    0.4794
  144.64   89.46 -179.56     0.002000       0.5151    3.7432    0.5050
  157.02   91.00  165.99     0.002000       0.8690    2.2211    0.5128
  109.89   89.02   11.49     0.002000       0.9009    2.6831    0.4067
 -146.33   89.40 -177.79     0.002000       0.6567    3.8529    0.3838
   97.53   89.99    1.50     0.002000       0.6429    4.0085    0.3760
   69.04   89.44   -0.19     0.002000       0.6623    4.0284    0.3629
  161.78   96.73 -179.62     0.002000       0.9241    1.9722    0.5438
  109.46   91.15   -8.98     0.002000       0.9033    2.9517    0.3670
  170.01   98.76 -175.27     0.002000       0.8862    1.6725    0.6717
   70.44   91.22   -9.53     0.002000       0.9060    2.8884    0.3743
   99.35   89.00  -10.91     0.002000       0.9025    2.7543    0.3950
 -142.83   89.21  179.75     0.002000       0.6191    4.0065    0.3908
   65.87   95.36    3.49     0.002000       0.9238    2.0912    0.5121
  121.29   90.50   -1.12     0.002000       0.5262    3.8411    0.4813
   90.90   91.30  -11.51     0.002000       0.9028    2.6528    0.4106
  102.99   92.64   10.91     0.002000       0.8444    1.5871    0.7438
  160.38   89.83 -165.67     0.002000       0.8545    2.0813    0.5577
   58.78   96.17    5.60     0.002000       0.9047    2.0224    0.5415
  128.42   90.37   11.88     0.002000       0.8973    2.6543    0.4130
  178.48   89.62 -170.07     0.002000       0.8975    2.8930    0.3775
   53.25   88.73  -10.28     0.002000       0.9058    2.8117    0.3852
  108.44   89.24    4.04     0.002000       0.7621    3.6043    0.3540
  168.45   91.18 -168.74     0.002000       0.9041    2.7127    0.4006
   80.01   97.31   -2.21     0.002000       0.8632    1.5072    0.7664
 -147.27   82.63 -170.97     0.002000       0.8734    1.8041    0.6310
  118.88   90.04   -0.99     0.002000       0.5158    3.7719    0.5003
  154.64   90.87 -175.39     0.002000       0.8239    3.5200    0.3351
  162.94   89.92  178.26     0.002000       0.5794    3.9278    0.4267
   54.50   90.09   -1.21     0.002000       0.6004    3.9944    0.4044
  141.52   89.60 -178.77     0.002000       0.5385    3.8553    0.4684
  166.14   88.73  169.11     0.002000       0.9068    2.7747    0.3901
 -167.83   94.20 -170.48     0.002000       0.8934    2.2188    0.4987
  166.32   90.91  177.16     0.002000       0.7342    3.8067    0.3470
   78.41   82.31    5.83     0.002000       0.8642    1.5632    0.7378
  176.92   86.70 -167.14     0.002000       0.8722    2.1761    0.5217
  154.20   90.03 -179.56     0.002000       0.5271    3.9956    0.4609
   81.94   90.05   -0.37     0.002000       0.5359    3.9866    0.4544
 -171.20   91.00  170.62     0.002000       0.9022    2.9518    0.3676
 -159.92   90.82  175.23     0.002000       0.8210    3.5305    0.3352
  169.52   89.97 -178.52     0.002000       0.6482    4.0268    0.3711
  177.07   90.91 -178.14     0.002000       0.6633    3.8853    0.3766
  170.31   98.65  175.70     0.002000       0.8804    1.5983    0.7081
  150.87   87.30 -168.64     0.002000       0.8997    2.4215    0.4527
   95.01   90.90   -3.21     0.002000       0.7472    3.7462    0.3466
 -144.17   89.91 -170.62     0.002000       0.8931    2.9476    0.3720
  147.26   88.98 -179.69     0.002000       0.5139    3.7953    0.4989
   96.74   89.93    0.95     0.002000       0.5131    3.7732    0.5028
   90.07   89.14    1.87     0.002000       0.7130    3.8851    0.3498
 -157.62   80.88  179.02     0.002000       0.8911    1.6751    0.6668
   88.72   89.42    6.67     0.002000       0.8559    3.2494    0.3508
  155.54   89.98  172.87     0.002000       0.8639    3.2278    0.3500
   76.42   89.06    3.73     0.002000       0.7544    3.6394    0.3541
  163.98   90.43  169.07     0.002000       0.8999    2.7965    0.3900
 -168.39   89.98  178.79     0.002000       0.5738    3.9944    0.4233
  178.87   83.38 -169.20     0.002000       0.8653    1.8130    0.6338
   43.73   85.01  -12.22     0.002000       0.8530    1.9053    0.6113
  170.60   89.78  178.70     0.002000       0.5086    3.8348    0.4988
   97.07   89.07    9.74     0.002000       0.9004    2.8884    0.3768
   49.54   89.41   -0.06     0.002000       0.6571    4.0345    0.3653
  119.93   90.12   -5.16     0.002000       0.8016    3.4748    0.3495
  134.85   91.61  -12.74     0.002000       0.8930    2.4634    0.4483
  164.49   90.30  179.86     0.002000       0.5178    3.7204    0.5056
 -173.71   90.31  178.81     0.002000       0.5302    3.9476    0.4641
  137.41   90.39  179.41     0.002000       0.5666    3.9901    0.4293
   79.21   90.23   -1.29     0.002000       0.5371    3.8653    0.4683
  177.16   92.22  165.92     0.002000       0.8566    2.0636    0.5611
   79.61   89.31   11.26     0.002000       0.8998    2.7180    0.4018
 -156.69   89.54  178.79     0.002000       0.5317    3.8975    0.4690
  126.63   90.30   -1.69     0.002000       0.6059    3.9262    0.4082
 -147.19   90.70  177.47     0.002000       0.6710    3.8245    0.3785
   98.52   89.53   -2.43     0.002000       0.6467    3.8424    0.3910
 -140.89   90.15  178.75     0.002000       0.5235    3.8141    0.4873
  115.93   89.71    1.28     0.002000       0.5393    3.8536    0.4679
  109.49   90.79   -7.33     0.002000       0.8890    3.0639    0.3584
   82.24   91.23  -12.57     0.002000       0.8917    2.4847    0.4450
 -155.52   90.07  178.26     0.002000       0.6224    3.9966    0.3897
   49.17   89.74    1.24     0.002000       0.5223    3.8199    0.4877
   75.72   90.63   12.90     0.002000       0.8874    2.4582    0.4522
   93.19   89.12  -10.06     0.002000       0.9008    2.8553    0.3812
 -169.40   85.49  166.99     0.002000       0.8528    1.9132    0.6089
 -140.03   92.06  167.45     0.002000       0.8407    1.6599    0.7138
 -165.48   90.09 -178.52     0.002000       0.5833    3.9525    0.4210
  172.43   89.94 -178.43     0.002000       0.5713    3.9122    0.4346
 -152.28   90.03 -178.45     0.002000       0.5714    3.9154    0.4341
 -159.53   91.04 -178.70     0.002000       0.6614    3.9499    0.3711
 -144.83   89.24 -179.32     0.002000       0.6629    4.0055    0.3648
  117.31   80.76    0.99     0.002000       0.8884    1.6393    0.6838
   52.43   91.03  -12.84     0.002000       0.8873    2.4461    0.4545
 -156.61   90.61 -174.36     0.002000       0.8610    3.2641    0.3465
   56.33   92.98   12.72     0.002000       0.8720    2.2042    0.5150
  103.00   86.99  -13.38     0.002000       0.8404    1.7915    0.6609
  116.70   98.17   -3.75     0.002000       0.8991    1.8152    0.6088
 -174.56   90.80 -177.27     0.002000       0.6997    3.7834    0.3669
   94.39   89.63    1.32     0.002000       0.5456    3.8903    0.4579
 -134.29   88.40 -167.41     0.002000       0.8911    2.4569    0.4505
 -135.94   86.91 -169.11     0.002000       0.8929    2.3339    0.4738
  130.32   88.95    6.85     0.002000       0.8773    3.2326    0.3438
   76.42   87.24   12.66     0.002000       0.8381    1.7056    0.6966
   82.66   88.91   -2.17     0.002000       0.6903    3.8571    0.3644
  170.45   90.06  178.39     0.002000       0.6226    4.0126    0.3880
 -146.86   90.47 -179.71     0.002000       0.7136    4.0022    0.3388
   84.51   89.59   10.06     0.002000       0.8971    2.8658    0.3814
  148.17   82.76  170.04     0.002000       0.8716    1.7923    0.6366
  101.40   88.06   12.63     0.002000       0.8902    2.4159    0.4589
   99.41   89.44  -13.89     0.002000       0.8600    2.1550    0.5346
  121.60   86.54  -11.91     0.002000       0.8838    2.2481    0.4977
  103.22   86.39   -3.33     0.002000       0.8496    1.4518    0.8087
   63.80   81.82    5.14     0.002000       0.8935    1.8106    0.6143
 -172.11   86.83  169.60     0.002000       0.9003    2.3591    0.4646
